Ecm (MeV) cross (mb)
0.1	8.04E-39
0.101	1.40E-38
0.102	2.41E-38
0.103	4.13E-38
0.104	7.02E-38
0.105	1.18E-37
0.106	1.98E-37
0.107	3.29E-37
0.108	5.43E-37
0.109	8.90E-37
0.11	1.45E-36
0.111	2.34E-36
0.112	3.76E-36
0.113	6.00E-36
0.114	9.53E-36
0.115	1.50E-35
0.116	2.35E-35
0.117	3.67E-35
0.118	5.69E-35
0.119	8.76E-35
0.12	1.34E-34
0.121	2.05E-34
0.122	3.11E-34
0.123	4.69E-34
0.124	7.04E-34
0.125	1.05E-33
0.126	1.56E-33
0.127	2.31E-33
0.128	3.41E-33
0.129	5.00E-33
0.13	7.30E-33
0.131	1.06E-32
0.132	1.54E-32
0.133	2.21E-32
0.134	3.18E-32
0.135	4.55E-32
0.136	6.48E-32
0.137	9.19E-32
0.138	1.30E-31
0.139	1.83E-31
0.14	2.57E-31
0.141	3.59E-31
0.142	4.99E-31
0.143	6.93E-31
0.144	9.59E-31
0.145	1.32E-30
0.146	1.82E-30
0.147	2.49E-30
0.148	3.40E-30
0.149	4.62E-30
0.15	6.28E-30
0.151	8.49E-30
0.152	1.14E-29
0.153	1.54E-29
0.154	2.06E-29
0.155	2.76E-29
0.156	3.68E-29
0.157	4.89E-29
0.158	6.49E-29
0.159	8.58E-29
0.16	1.13E-28
0.161	1.49E-28
0.162	1.96E-28
0.163	2.56E-28
0.164	3.34E-28
0.165	4.35E-28
0.166	5.66E-28
0.167	7.34E-28
0.168	9.49E-28
0.169	1.23E-27
0.17	1.58E-27
0.171	2.03E-27
0.172	2.60E-27
0.173	3.32E-27
0.174	4.24E-27
0.175	5.41E-27
0.176	6.87E-27
0.177	8.72E-27
0.178	1.10E-26
0.179	1.40E-26
0.18	1.76E-26
0.181	2.22E-26
0.182	2.78E-26
0.183	3.49E-26
0.184	4.37E-26
0.185	5.46E-26
0.186	6.81E-26
0.187	8.48E-26
0.188	1.05E-25
0.189	1.31E-25
0.19	1.62E-25
0.191	2.00E-25
0.192	2.47E-25
0.193	3.05E-25
0.194	3.75E-25
0.195	4.61E-25
0.196	5.66E-25
0.197	6.93E-25
0.198	8.48E-25
0.199	1.04E-24
0.2	1.26E-24
0.201	1.54E-24
0.202	1.87E-24
0.203	2.27E-24
0.204	2.75E-24
0.205	3.33E-24
0.206	4.03E-24
0.207	4.86E-24
0.208	5.86E-24
0.209	7.06E-24
0.21	8.48E-24
0.211	1.02E-23
0.212	1.22E-23
0.213	1.46E-23
0.214	1.75E-23
0.215	2.09E-23
0.216	2.50E-23
0.217	2.98E-23
0.218	3.54E-23
0.219	4.22E-23
0.22	5.01E-23
0.221	5.94E-23
0.222	7.04E-23
0.223	8.33E-23
0.224	9.85E-23
0.225	1.16E-22
0.226	1.37E-22
0.227	1.62E-22
0.228	1.91E-22
0.229	2.24E-22
0.23	2.63E-22
0.231	3.09E-22
0.232	3.62E-22
0.233	4.24E-22
0.234	4.97E-22
0.235	5.80E-22
0.236	6.78E-22
0.237	7.91E-22
0.238	9.22E-22
0.239	1.07E-21
0.24	1.25E-21
0.241	1.45E-21
0.242	1.69E-21
0.243	1.96E-21
0.244	2.27E-21
0.245	2.63E-21
0.246	3.04E-21
0.247	3.51E-21
0.248	4.06E-21
0.249	4.68E-21
0.25	5.40E-21
0.251	6.22E-21
0.252	7.17E-21
0.253	8.24E-21
0.254	9.48E-21
0.255	1.09E-20
0.256	1.25E-20
0.257	1.43E-20
0.258	1.64E-20
0.259	1.88E-20
0.26	2.15E-20
0.261	2.46E-20
0.262	2.81E-20
0.263	3.21E-20
0.264	3.66E-20
0.265	4.17E-20
0.266	4.75E-20
0.267	5.41E-20
0.268	6.15E-20
0.269	6.99E-20
0.27	7.94E-20
0.271	9.02E-20
0.272	1.02E-19
0.273	1.16E-19
0.274	1.31E-19
0.275	1.49E-19
0.276	1.68E-19
0.277	1.90E-19
0.278	2.15E-19
0.279	2.43E-19
0.28	2.74E-19
0.281	3.10E-19
0.282	3.49E-19
0.283	3.93E-19
0.284	4.43E-19
0.285	4.98E-19
0.286	5.61E-19
0.287	6.30E-19
0.288	7.08E-19
0.289	7.95E-19
0.29	8.92E-19
0.291	1.00E-18
0.292	1.12E-18
0.293	1.26E-18
0.294	1.41E-18
0.295	1.58E-18
0.296	1.76E-18
0.297	1.97E-18
0.298	2.20E-18
0.299	2.46E-18
0.3	2.75E-18
0.301	3.07E-18
0.302	3.42E-18
0.303	3.82E-18
0.304	4.25E-18
0.305	4.74E-18
0.306	5.28E-18
0.307	5.87E-18
0.308	6.54E-18
0.309	7.27E-18
0.31	8.08E-18
0.311	8.98E-18
0.312	9.97E-18
0.313	1.11E-17
0.314	1.23E-17
0.315	1.36E-17
0.316	1.51E-17
0.317	1.68E-17
0.318	1.86E-17
0.319	2.06E-17
0.32	2.28E-17
0.321	2.53E-17
0.322	2.80E-17
0.323	3.09E-17
0.324	3.42E-17
0.325	3.79E-17
0.326	4.19E-17
0.327	4.63E-17
0.328	5.12E-17
0.329	5.66E-17
0.33	6.25E-17
0.331	6.90E-17
0.332	7.63E-17
0.333	8.42E-17
0.334	9.30E-17
0.335	1.03E-16
0.336	1.13E-16
0.337	1.25E-16
0.338	1.38E-16
0.339	1.53E-16
0.34	1.69E-16
0.341	1.86E-16
0.342	2.06E-16
0.343	2.27E-16
0.344	2.51E-16
0.345	2.78E-16
0.346	3.07E-16
0.347	3.40E-16
0.348	3.76E-16
0.349	4.17E-16
0.35	4.62E-16
0.351	5.12E-16
0.352	5.68E-16
0.353	6.31E-16
0.354	7.01E-16
0.355	7.80E-16
0.356	8.69E-16
0.357	9.69E-16
0.358	1.08E-15
0.359	1.21E-15
0.36	1.36E-15
0.361	1.52E-15
0.362	1.71E-15
0.363	1.92E-15
0.364	2.16E-15
0.365	2.43E-15
0.366	2.74E-15
0.367	3.10E-15
0.368	3.49E-15
0.369	3.94E-15
0.37	4.43E-15
0.371	4.98E-15
0.372	5.57E-15
0.373	6.20E-15
0.374	6.87E-15
0.375	7.56E-15
0.376	8.25E-15
0.377	8.94E-15
0.378	9.61E-15
0.379	1.02E-14
0.38	1.09E-14
0.381	1.14E-14
0.382	1.20E-14
0.383	1.25E-14
0.384	1.30E-14
0.385	1.34E-14
0.386	1.39E-14
0.387	1.44E-14
0.388	1.50E-14
0.389	1.56E-14
0.39	1.62E-14
0.391	1.68E-14
0.392	1.75E-14
0.393	1.83E-14
0.394	1.92E-14
0.395	2.01E-14
0.396	2.11E-14
0.397	2.22E-14
0.398	2.34E-14
0.399	2.47E-14
0.4	2.61E-14
0.401	2.76E-14
0.402	2.92E-14
0.403	3.10E-14
0.404	3.29E-14
0.405	3.49E-14
0.406	3.72E-14
0.407	3.96E-14
0.408	4.22E-14
0.409	4.50E-14
0.41	4.80E-14
0.411	5.13E-14
0.412	5.48E-14
0.413	5.87E-14
0.414	6.28E-14
0.415	6.73E-14
0.416	7.22E-14
0.417	7.75E-14
0.418	8.32E-14
0.419	8.95E-14
0.42	9.64E-14
0.421	1.04E-13
0.422	1.12E-13
0.423	1.21E-13
0.424	1.31E-13
0.425	1.41E-13
0.426	1.53E-13
0.427	1.65E-13
0.428	1.79E-13
0.429	1.93E-13
0.43	2.07E-13
0.431	2.22E-13
0.432	2.38E-13
0.433	2.54E-13
0.434	2.69E-13
0.435	2.85E-13
0.436	3.02E-13
0.437	3.19E-13
0.438	3.36E-13
0.439	3.55E-13
0.44	3.75E-13
0.441	3.96E-13
0.442	4.19E-13
0.443	4.43E-13
0.444	4.70E-13
0.445	4.99E-13
0.446	5.29E-13
0.447	5.63E-13
0.448	5.98E-13
0.449	6.37E-13
0.45	6.78E-13
0.451	7.23E-13
0.452	7.71E-13
0.453	8.22E-13
0.454	8.78E-13
0.455	9.37E-13
0.456	1.00E-12
0.457	1.07E-12
0.458	1.14E-12
0.459	1.22E-12
0.46	1.31E-12
0.461	1.40E-12
0.462	1.50E-12
0.463	1.61E-12
0.464	1.72E-12
0.465	1.85E-12
0.466	1.98E-12
0.467	2.13E-12
0.468	2.28E-12
0.469	2.45E-12
0.47	2.64E-12
0.471	2.84E-12
0.472	3.05E-12
0.473	3.29E-12
0.474	3.54E-12
0.475	3.82E-12
0.476	4.12E-12
0.477	4.45E-12
0.478	4.82E-12
0.479	5.21E-12
0.48	5.65E-12
0.481	6.12E-12
0.482	6.65E-12
0.483	7.23E-12
0.484	7.87E-12
0.485	8.58E-12
0.486	9.38E-12
0.487	1.03E-11
0.488	1.12E-11
0.489	1.23E-11
0.49	1.36E-11
0.491	1.50E-11
0.492	1.66E-11
0.493	1.84E-11
0.494	2.05E-11
0.495	2.28E-11
0.496	2.56E-11
0.497	2.87E-11
0.498	3.24E-11
0.499	3.67E-11
0.5	4.18E-11
0.501	4.78E-11
0.502	5.49E-11
0.503	6.34E-11
0.504	7.36E-11
0.505	8.58E-11
0.506	1.00E-10
0.507	1.18E-10
0.508	1.39E-10
0.509	1.63E-10
0.51	1.91E-10
0.511	2.22E-10
0.512	2.54E-10
0.513	2.86E-10
0.514	3.13E-10
0.515	3.33E-10
0.516	3.44E-10
0.517	3.44E-10
0.518	3.36E-10
0.519	3.23E-10
0.52	3.06E-10
0.521	2.88E-10
0.522	2.70E-10
0.523	2.53E-10
0.524	2.38E-10
0.525	2.25E-10
0.526	2.14E-10
0.527	2.04E-10
0.528	1.96E-10
0.529	1.90E-10
0.53	1.85E-10
0.531	1.81E-10
0.532	1.78E-10
0.533	1.76E-10
0.534	1.75E-10
0.535	1.75E-10
0.536	1.76E-10
0.537	1.77E-10
0.538	1.79E-10
0.539	1.82E-10
0.54	1.85E-10
0.541	1.89E-10
0.542	1.94E-10
0.543	1.99E-10
0.544	2.05E-10
0.545	2.12E-10
0.546	2.19E-10
0.547	2.27E-10
0.548	2.36E-10
0.549	2.45E-10
0.55	2.55E-10
0.551	2.66E-10
0.552	2.78E-10
0.553	2.91E-10
0.554	3.05E-10
0.555	3.20E-10
0.556	3.36E-10
0.557	3.54E-10
0.558	3.72E-10
0.559	3.92E-10
0.56	4.13E-10
0.561	4.36E-10
0.562	4.60E-10
0.563	4.86E-10
0.564	5.14E-10
0.565	5.44E-10
0.566	5.76E-10
0.567	6.10E-10
0.568	6.46E-10
0.569	6.85E-10
0.57	7.26E-10
0.571	7.71E-10
0.572	8.18E-10
0.573	8.68E-10
0.574	9.22E-10
0.575	9.79E-10
0.576	1.04E-09
0.577	1.11E-09
0.578	1.17E-09
0.579	1.25E-09
0.58	1.32E-09
0.581	1.41E-09
0.582	1.49E-09
0.583	1.59E-09
0.584	1.68E-09
0.585	1.79E-09
0.586	1.90E-09
0.587	2.01E-09
0.588	2.13E-09
0.589	2.26E-09
0.59	2.39E-09
0.591	2.53E-09
0.592	2.67E-09
0.593	2.82E-09
0.594	2.98E-09
0.595	3.14E-09
0.596	3.31E-09
0.597	3.49E-09
0.598	3.67E-09
0.599	3.86E-09
0.6	4.06E-09
0.601	4.26E-09
0.602	4.48E-09
0.603	4.70E-09
0.604	4.93E-09
0.605	5.18E-09
0.606	5.43E-09
0.607	5.70E-09
0.608	5.99E-09
0.609	6.29E-09
0.61	6.62E-09
0.611	6.96E-09
0.612	7.34E-09
0.613	7.74E-09
0.614	8.18E-09
0.615	8.66E-09
0.616	9.18E-09
0.617	9.76E-09
0.618	1.04E-08
0.619	1.11E-08
0.62	1.19E-08
0.621	1.28E-08
0.622	1.38E-08
0.623	1.49E-08
0.624	1.62E-08
0.625	1.76E-08
0.626	1.92E-08
0.627	2.11E-08
0.628	2.31E-08
0.629	2.55E-08
0.63	2.82E-08
0.631	3.13E-08
0.632	3.47E-08
0.633	3.85E-08
0.634	4.27E-08
0.635	4.73E-08
0.636	5.22E-08
0.637	5.73E-08
0.638	6.25E-08
0.639	6.74E-08
0.64	7.20E-08
0.641	7.58E-08
0.642	7.87E-08
0.643	8.06E-08
0.644	8.14E-08
0.645	8.11E-08
0.646	7.99E-08
0.647	7.80E-08
0.648	7.55E-08
0.649	7.27E-08
0.65	6.97E-08
0.651	6.66E-08
0.652	6.36E-08
0.653	6.07E-08
0.654	5.80E-08
0.655	5.55E-08
0.656	5.31E-08
0.657	5.10E-08
0.658	4.90E-08
0.659	4.73E-08
0.66	4.57E-08
0.661	4.42E-08
0.662	4.29E-08
0.663	4.17E-08
0.664	4.07E-08
0.665	3.98E-08
0.666	3.90E-08
0.667	3.82E-08
0.668	3.76E-08
0.669	3.71E-08
0.67	3.66E-08
0.671	3.62E-08
0.672	3.58E-08
0.673	3.56E-08
0.674	3.53E-08
0.675	3.52E-08
0.676	3.51E-08
0.677	3.50E-08
0.678	3.50E-08
0.679	3.50E-08
0.68	3.51E-08
0.681	3.52E-08
0.682	3.54E-08
0.683	3.56E-08
0.684	3.58E-08
0.685	3.61E-08
0.686	3.64E-08
0.687	3.67E-08
0.688	3.71E-08
0.689	3.75E-08
0.69	3.79E-08
0.691	3.84E-08
0.692	3.90E-08
0.693	3.95E-08
0.694	4.01E-08
0.695	4.07E-08
0.696	4.14E-08
0.697	4.21E-08
0.698	4.29E-08
0.699	4.37E-08
0.7	4.45E-08
0.701	4.54E-08
0.702	4.63E-08
0.703	4.73E-08
0.704	4.83E-08
0.705	4.93E-08
0.706	5.04E-08
0.707	5.16E-08
0.708	5.28E-08
0.709	5.41E-08
0.71	5.54E-08
0.711	5.68E-08
0.712	5.82E-08
0.713	5.97E-08
0.714	6.13E-08
0.715	6.29E-08
0.716	6.46E-08
0.717	6.64E-08
0.718	6.83E-08
0.719	7.02E-08
0.72	7.23E-08
0.721	7.44E-08
0.722	7.66E-08
0.723	7.89E-08
0.724	8.13E-08
0.725	8.38E-08
0.726	8.65E-08
0.727	8.92E-08
0.728	9.21E-08
0.729	9.51E-08
0.73	9.83E-08
0.731	1.02E-07
0.732	1.05E-07
0.733	1.09E-07
0.734	1.12E-07
0.735	1.16E-07
0.736	1.20E-07
0.737	1.25E-07
0.738	1.29E-07
0.739	1.34E-07
0.74	1.39E-07
0.741	1.44E-07
0.742	1.50E-07
0.743	1.56E-07
0.744	1.62E-07
0.745	1.68E-07
0.746	1.75E-07
0.747	1.82E-07
0.748	1.90E-07
0.749	1.98E-07
0.75	2.06E-07
0.751	2.15E-07
0.752	2.24E-07
0.753	2.34E-07
0.754	2.44E-07
0.755	2.55E-07
0.756	2.67E-07
0.757	2.79E-07
0.758	2.92E-07
0.759	3.06E-07
0.76	3.20E-07
0.761	3.36E-07
0.762	3.52E-07
0.763	3.69E-07
0.764	3.87E-07
0.765	4.06E-07
0.766	4.26E-07
0.767	4.47E-07
0.768	4.70E-07
0.769	4.93E-07
0.77	5.18E-07
0.771	5.44E-07
0.772	5.71E-07
0.773	6.00E-07
0.774	6.30E-07
0.775	6.61E-07
0.776	6.93E-07
0.777	7.26E-07
0.778	7.60E-07
0.779	7.95E-07
0.78	8.31E-07
0.781	8.67E-07
0.782	9.03E-07
0.783	9.40E-07
0.784	9.77E-07
0.785	1.01E-06
0.786	1.05E-06
0.787	1.08E-06
0.788	1.12E-06
0.789	1.15E-06
0.79	1.18E-06
0.791	1.21E-06
0.792	1.24E-06
0.793	1.26E-06
0.794	1.29E-06
0.795	1.31E-06
0.796	1.33E-06
0.797	1.35E-06
0.798	1.36E-06
0.799	1.38E-06
0.8	1.39E-06
0.801	1.41E-06
0.802	1.42E-06
0.803	1.43E-06
0.804	1.44E-06
0.805	1.45E-06
0.806	1.46E-06
0.807	1.47E-06
0.808	1.48E-06
0.809	1.49E-06
0.81	1.50E-06
0.811	1.51E-06
0.812	1.52E-06
0.813	1.53E-06
0.814	1.55E-06
0.815	1.56E-06
0.816	1.58E-06
0.817	1.59E-06
0.818	1.61E-06
0.819	1.63E-06
0.82	1.65E-06
0.821	1.67E-06
0.822	1.69E-06
0.823	1.71E-06
0.824	1.74E-06
0.825	1.77E-06
0.826	1.80E-06
0.827	1.83E-06
0.828	1.86E-06
0.829	1.89E-06
0.83	1.93E-06
0.831	1.96E-06
0.832	2.00E-06
0.833	2.04E-06
0.834	2.09E-06
0.835	2.13E-06
0.836	2.18E-06
0.837	2.23E-06
0.838	2.28E-06
0.839	2.33E-06
0.84	2.39E-06
0.841	2.45E-06
0.842	2.51E-06
0.843	2.57E-06
0.844	2.64E-06
0.845	2.71E-06
0.846	2.78E-06
0.847	2.85E-06
0.848	2.93E-06
0.849	3.01E-06
0.85	3.10E-06
0.851	3.18E-06
0.852	3.27E-06
0.853	3.37E-06
0.854	3.47E-06
0.855	3.57E-06
0.856	3.68E-06
0.857	3.79E-06
0.858	3.90E-06
0.859	4.02E-06
0.86	4.14E-06
0.861	4.27E-06
0.862	4.41E-06
0.863	4.55E-06
0.864	4.69E-06
0.865	4.84E-06
0.866	4.99E-06
0.867	5.16E-06
0.868	5.32E-06
0.869	5.50E-06
0.87	5.68E-06
0.871	5.86E-06
0.872	6.06E-06
0.873	6.26E-06
0.874	6.47E-06
0.875	6.68E-06
0.876	6.91E-06
0.877	7.14E-06
0.878	7.38E-06
0.879	7.63E-06
0.88	7.89E-06
0.881	8.16E-06
0.882	8.44E-06
0.883	8.73E-06
0.884	9.03E-06
0.885	9.34E-06
0.886	9.66E-06
0.887	9.99E-06
0.888	1.03E-05
0.889	1.07E-05
0.89	1.11E-05
0.891	1.14E-05
0.892	1.18E-05
0.893	1.22E-05
0.894	1.26E-05
0.895	1.31E-05
0.896	1.35E-05
0.897	1.40E-05
0.898	1.45E-05
0.899	1.49E-05
0.9	1.54E-05
0.901	1.60E-05
0.902	1.65E-05
0.903	1.70E-05
0.904	1.76E-05
0.905	1.82E-05
0.906	1.88E-05
0.907	1.94E-05
0.908	2.00E-05
0.909	2.06E-05
0.91	2.13E-05
0.911	2.20E-05
0.912	2.26E-05
0.913	2.33E-05
0.914	2.40E-05
0.915	2.48E-05
0.916	2.55E-05
0.917	2.62E-05
0.918	2.70E-05
0.919	2.78E-05
0.92	2.85E-05
0.921	2.93E-05
0.922	3.01E-05
0.923	3.09E-05
0.924	3.17E-05
0.925	3.25E-05
0.926	3.33E-05
0.927	3.42E-05
0.928	3.50E-05
0.929	3.58E-05
0.93	3.66E-05
0.931	3.74E-05
0.932	3.82E-05
0.933	3.90E-05
0.934	3.99E-05
0.935	4.06E-05
0.936	4.14E-05
0.937	4.22E-05
0.938	4.30E-05
0.939	4.37E-05
0.94	4.45E-05
0.941	4.52E-05
0.942	4.59E-05
0.943	4.66E-05
0.944	4.73E-05
0.945	4.80E-05
0.946	4.86E-05
0.947	4.93E-05
0.948	4.99E-05
0.949	5.05E-05
0.95	5.11E-05
0.951	5.16E-05
0.952	5.22E-05
0.953	5.27E-05
0.954	5.32E-05
0.955	5.37E-05
0.956	5.42E-05
0.957	5.46E-05
0.958	5.51E-05
0.959	5.55E-05
0.96	5.59E-05
0.961	5.63E-05
0.962	5.67E-05
0.963	5.70E-05
0.964	5.74E-05
0.965	5.77E-05
0.966	5.80E-05
0.967	5.83E-05
0.968	5.86E-05
0.969	5.89E-05
0.97	5.91E-05
0.971	5.94E-05
0.972	5.96E-05
0.973	5.99E-05
0.974	6.01E-05
0.975	6.03E-05
0.976	6.06E-05
0.977	6.08E-05
0.978	6.10E-05
0.979	6.12E-05
0.98	6.14E-05
0.981	6.16E-05
0.982	6.18E-05
0.983	6.20E-05
0.984	6.22E-05
0.985	6.24E-05
0.986	6.26E-05
0.987	6.28E-05
0.988	6.30E-05
0.989	6.32E-05
0.99	6.34E-05
0.991	6.36E-05
0.992	6.39E-05
0.993	6.41E-05
0.994	6.43E-05
0.995	6.46E-05
0.996	6.48E-05
0.997	6.51E-05
0.998	6.54E-05
0.999	6.57E-05
1	6.60E-05
1.001	6.63E-05
1.002	6.66E-05
1.003	6.70E-05
1.004	6.74E-05
1.005	6.78E-05
1.006	6.83E-05
1.007	6.88E-05
1.008	6.93E-05
1.009	6.98E-05
1.01	7.03E-05
1.011	7.09E-05
1.012	7.14E-05
1.013	7.19E-05
1.014	7.24E-05
1.015	7.28E-05
1.016	7.31E-05
1.017	7.34E-05
1.018	7.37E-05
1.019	7.39E-05
1.02	7.40E-05
1.021	7.42E-05
1.022	7.43E-05
1.023	7.45E-05
1.024	7.47E-05
1.025	7.49E-05
1.026	7.51E-05
1.027	7.54E-05
1.028	7.57E-05
1.029	7.60E-05
1.03	7.63E-05
1.031	7.67E-05
1.032	7.71E-05
1.033	7.75E-05
1.034	7.79E-05
1.035	7.83E-05
1.036	7.88E-05
1.037	7.93E-05
1.038	7.98E-05
1.039	8.03E-05
1.04	8.08E-05
1.041	8.14E-05
1.042	8.20E-05
1.043	8.25E-05
1.044	8.31E-05
1.045	8.38E-05
1.046	8.44E-05
1.047	8.50E-05
1.048	8.57E-05
1.049	8.64E-05
1.05	8.71E-05
1.051	8.78E-05
1.052	8.86E-05
1.053	8.93E-05
1.054	9.01E-05
1.055	9.09E-05
1.056	9.17E-05
1.057	9.25E-05
1.058	9.33E-05
1.059	9.42E-05
1.06	9.51E-05
1.061	9.60E-05
1.062	9.69E-05
1.063	9.78E-05
1.064	9.88E-05
1.065	9.98E-05
1.066	1.01E-04
1.067	1.02E-04
1.068	1.03E-04
1.069	1.04E-04
1.07	1.05E-04
1.071	1.06E-04
1.072	1.07E-04
1.073	1.08E-04
1.074	1.10E-04
1.075	1.11E-04
1.076	1.12E-04
1.077	1.13E-04
1.078	1.15E-04
1.079	1.16E-04
1.08	1.17E-04
1.081	1.19E-04
1.082	1.20E-04
1.083	1.21E-04
1.084	1.23E-04
1.085	1.24E-04
1.086	1.26E-04
1.087	1.27E-04
1.088	1.29E-04
1.089	1.31E-04
1.09	1.32E-04
1.091	1.34E-04
1.092	1.36E-04
1.093	1.37E-04
1.094	1.39E-04
1.095	1.41E-04
1.096	1.43E-04
1.097	1.45E-04
1.098	1.47E-04
1.099	1.49E-04
1.1	1.51E-04
1.101	1.53E-04
1.102	1.55E-04
1.103	1.58E-04
1.104	1.60E-04
1.105	1.62E-04
1.106	1.65E-04
1.107	1.67E-04
1.108	1.70E-04
1.109	1.72E-04
1.11	1.75E-04
1.111	1.78E-04
1.112	1.80E-04
1.113	1.83E-04
1.114	1.86E-04
1.115	1.89E-04
1.116	1.92E-04
1.117	1.96E-04
1.118	1.99E-04
1.119	2.03E-04
1.12	2.06E-04
1.121	2.10E-04
1.122	2.14E-04
1.123	2.18E-04
1.124	2.22E-04
1.125	2.26E-04
1.126	2.30E-04
1.127	2.35E-04
1.128	2.39E-04
1.129	2.44E-04
1.13	2.49E-04
1.131	2.55E-04
1.132	2.60E-04
1.133	2.66E-04
1.134	2.72E-04
1.135	2.79E-04
1.136	2.85E-04
1.137	2.92E-04
1.138	3.00E-04
1.139	3.08E-04
1.14	3.16E-04
1.141	3.25E-04
1.142	3.34E-04
1.143	3.44E-04
1.144	3.54E-04
1.145	3.66E-04
1.146	3.78E-04
1.147	3.91E-04
1.148	4.05E-04
1.149	4.20E-04
1.15	4.36E-04
1.151	4.53E-04
1.152	4.73E-04
1.153	4.94E-04
1.154	5.16E-04
1.155	5.41E-04
1.156	5.69E-04
1.157	5.99E-04
1.158	6.33E-04
1.159	6.70E-04
1.16	7.11E-04
1.161	7.57E-04
1.162	8.07E-04
1.163	8.64E-04
1.164	9.26E-04
1.165	9.95E-04
1.166	1.07E-03
1.167	1.15E-03
1.168	1.24E-03
1.169	1.33E-03
1.17	1.43E-03
1.171	1.53E-03
1.172	1.62E-03
1.173	1.71E-03
1.174	1.78E-03
1.175	1.84E-03
1.176	1.87E-03
1.177	1.89E-03
1.178	1.88E-03
1.179	1.85E-03
1.18	1.80E-03
1.181	1.74E-03
1.182	1.68E-03
1.183	1.61E-03
1.184	1.53E-03
1.185	1.47E-03
1.186	1.40E-03
1.187	1.34E-03
1.188	1.28E-03
1.189	1.23E-03
1.19	1.18E-03
1.191	1.14E-03
1.192	1.10E-03
1.193	1.07E-03
1.194	1.04E-03
1.195	1.02E-03
1.196	9.94E-04
1.197	9.74E-04
1.198	9.57E-04
1.199	9.42E-04
1.2	9.30E-04
1.201	9.19E-04
1.202	9.11E-04
1.203	9.03E-04
1.204	8.97E-04
1.205	8.93E-04
1.206	8.90E-04
1.207	8.88E-04
1.208	8.87E-04
1.209	8.86E-04
1.21	8.87E-04
1.211	8.89E-04
1.212	8.91E-04
1.213	8.94E-04
1.214	8.98E-04
1.215	9.03E-04
1.216	9.08E-04
1.217	9.13E-04
1.218	9.20E-04
1.219	9.26E-04
1.22	9.34E-04
1.221	9.41E-04
1.222	9.50E-04
1.223	9.58E-04
1.224	9.67E-04
1.225	9.77E-04
1.226	9.87E-04
1.227	9.98E-04
1.228	1.01E-03
1.229	1.02E-03
1.23	1.03E-03
1.231	1.04E-03
1.232	1.06E-03
1.233	1.07E-03
1.234	1.08E-03
1.235	1.10E-03
1.236	1.11E-03
1.237	1.12E-03
1.238	1.14E-03
1.239	1.15E-03
1.24	1.17E-03
1.241	1.19E-03
1.242	1.20E-03
1.243	1.22E-03
1.244	1.24E-03
1.245	1.25E-03
1.246	1.27E-03
1.247	1.29E-03
1.248	1.31E-03
1.249	1.33E-03
1.25	1.35E-03
1.251	1.37E-03
1.252	1.39E-03
1.253	1.41E-03
1.254	1.43E-03
1.255	1.45E-03
1.256	1.48E-03
1.257	1.50E-03
1.258	1.52E-03
1.259	1.55E-03
1.26	1.57E-03
1.261	1.60E-03
1.262	1.62E-03
1.263	1.65E-03
1.264	1.68E-03
1.265	1.70E-03
1.266	1.73E-03
1.267	1.76E-03
1.268	1.79E-03
1.269	1.82E-03
1.27	1.85E-03
1.271	1.88E-03
1.272	1.91E-03
1.273	1.94E-03
1.274	1.98E-03
1.275	2.01E-03
1.276	2.04E-03
1.277	2.08E-03
1.278	2.12E-03
1.279	2.15E-03
1.28	2.19E-03
1.281	2.23E-03
1.282	2.27E-03
1.283	2.31E-03
1.284	2.35E-03
1.285	2.39E-03
1.286	2.43E-03
1.287	2.48E-03
1.288	2.52E-03
1.289	2.57E-03
1.29	2.61E-03
1.291	2.66E-03
1.292	2.71E-03
1.293	2.76E-03
1.294	2.81E-03
1.295	2.87E-03
1.296	2.92E-03
1.297	2.98E-03
1.298	3.03E-03
1.299	3.09E-03
1.3	3.15E-03
1.301	3.21E-03
1.302	3.28E-03
1.303	3.34E-03
1.304	3.41E-03
1.305	3.48E-03
1.306	3.55E-03
1.307	3.62E-03
1.308	3.70E-03
1.309	3.77E-03
1.31	3.85E-03
1.311	3.94E-03
1.312	4.02E-03
1.313	4.11E-03
1.314	4.20E-03
1.315	4.30E-03
1.316	4.40E-03
1.317	4.50E-03
1.318	4.61E-03
1.319	4.72E-03
1.32	4.84E-03
1.321	4.97E-03
1.322	5.10E-03
1.323	5.25E-03
1.324	5.40E-03
1.325	5.57E-03
1.326	5.75E-03
1.327	5.95E-03
1.328	6.18E-03
1.329	6.44E-03
1.33	6.74E-03
1.331	7.10E-03
1.332	7.55E-03
1.333	8.11E-03
1.334	8.84E-03
1.335	9.84E-03
1.336	1.12E-02
1.337	1.32E-02
1.338	1.58E-02
1.339	1.85E-02
1.34	2.00E-02
1.341	1.91E-02
1.342	1.69E-02
1.343	1.47E-02
1.344	1.31E-02
1.345	1.21E-02
1.346	1.15E-02
1.347	1.11E-02
1.348	1.09E-02
1.349	1.08E-02
1.35	1.08E-02
1.351	1.09E-02
1.352	1.11E-02
1.353	1.13E-02
1.354	1.15E-02
1.355	1.18E-02
1.356	1.21E-02
1.357	1.25E-02
1.358	1.28E-02
1.359	1.32E-02
1.36	1.37E-02
1.361	1.41E-02
1.362	1.46E-02
1.363	1.52E-02
1.364	1.58E-02
1.365	1.64E-02
1.366	1.71E-02
1.367	1.78E-02
1.368	1.86E-02
1.369	1.94E-02
1.37	2.04E-02
1.371	2.13E-02
1.372	2.24E-02
1.373	2.36E-02
1.374	2.49E-02
1.375	2.63E-02
1.376	2.78E-02
1.377	2.95E-02
1.378	3.13E-02
1.379	3.34E-02
1.38	3.56E-02
1.381	3.81E-02
1.382	4.09E-02
1.383	4.39E-02
1.384	4.73E-02
1.385	5.11E-02
1.386	5.53E-02
1.387	6.00E-02
1.388	6.51E-02
1.389	7.09E-02
1.39	7.72E-02
1.391	8.42E-02
1.392	9.17E-02
1.393	9.98E-02
1.394	1.08E-01
1.395	1.17E-01
1.396	1.26E-01
1.397	1.34E-01
1.398	1.41E-01
1.399	1.48E-01
1.4	1.52E-01
1.401	1.55E-01
1.402	1.55E-01
1.403	1.54E-01
1.404	1.50E-01
1.405	1.45E-01
1.406	1.39E-01
1.407	1.32E-01
1.408	1.25E-01
1.409	1.17E-01
1.41	1.10E-01
1.411	1.03E-01
1.412	9.71E-02
1.413	9.12E-02
1.414	8.58E-02
1.415	8.09E-02
1.416	7.65E-02
1.417	7.25E-02
1.418	6.88E-02
1.419	6.56E-02
1.42	6.26E-02
1.421	6.00E-02
1.422	5.76E-02
1.423	5.55E-02
1.424	5.36E-02
1.425	5.19E-02
1.426	5.03E-02
1.427	4.90E-02
1.428	4.77E-02
1.429	4.66E-02
1.43	4.56E-02
1.431	4.48E-02
1.432	4.40E-02
1.433	4.33E-02
1.434	4.27E-02
1.435	4.21E-02
1.436	4.17E-02
1.437	4.13E-02
1.438	4.09E-02
1.439	4.06E-02
1.44	4.04E-02
1.441	4.02E-02
1.442	4.00E-02
1.443	3.99E-02
1.444	3.98E-02
1.445	3.98E-02
1.446	3.97E-02
1.447	3.98E-02
1.448	3.98E-02
1.449	3.99E-02
1.45	4.00E-02
1.451	4.01E-02
1.452	4.03E-02
1.453	4.04E-02
1.454	4.06E-02
1.455	4.09E-02
1.456	4.11E-02
1.457	4.14E-02
1.458	4.16E-02
1.459	4.19E-02
1.46	4.22E-02
1.461	4.26E-02
1.462	4.29E-02
1.463	4.33E-02
1.464	4.37E-02
1.465	4.41E-02
1.466	4.45E-02
1.467	4.49E-02
1.468	4.53E-02
1.469	4.58E-02
1.47	4.63E-02
1.471	4.67E-02
1.472	4.72E-02
1.473	4.77E-02
1.474	4.83E-02
1.475	4.88E-02
1.476	4.93E-02
1.477	4.99E-02
1.478	5.05E-02
1.479	5.11E-02
1.48	5.17E-02
1.481	5.23E-02
1.482	5.29E-02
1.483	5.35E-02
1.484	5.42E-02
1.485	5.48E-02
1.486	5.55E-02
1.487	5.62E-02
1.488	5.69E-02
1.489	5.76E-02
1.49	5.83E-02
1.491	5.91E-02
1.492	5.98E-02
1.493	6.05E-02
1.494	6.13E-02
1.495	6.21E-02
1.496	6.29E-02
1.497	6.37E-02
1.498	6.45E-02
1.499	6.53E-02
1.5	6.61E-02
1.501	6.70E-02
1.502	6.78E-02
1.503	6.87E-02
1.504	6.95E-02
1.505	7.04E-02
1.506	7.13E-02
1.507	7.22E-02
1.508	7.31E-02
1.509	7.40E-02
1.51	7.50E-02
1.511	7.59E-02
1.512	7.69E-02
1.513	7.78E-02
1.514	7.88E-02
1.515	7.98E-02
1.516	8.08E-02
1.517	8.18E-02
1.518	8.28E-02
1.519	8.38E-02
1.52	8.48E-02
1.521	8.58E-02
1.522	8.69E-02
1.523	8.79E-02
1.524	8.90E-02
1.525	9.00E-02
1.526	9.11E-02
1.527	9.22E-02
1.528	9.33E-02
1.529	9.44E-02
1.53	9.55E-02
1.531	9.66E-02
1.532	9.77E-02
1.533	9.88E-02
1.534	1.00E-01
1.535	1.01E-01
1.536	1.02E-01
1.537	1.03E-01
1.538	1.05E-01
1.539	1.06E-01
1.54	1.07E-01
1.541	1.08E-01
1.542	1.09E-01
1.543	1.10E-01
1.544	1.12E-01
1.545	1.13E-01
1.546	1.14E-01
1.547	1.15E-01
1.548	1.17E-01
1.549	1.18E-01
1.55	1.19E-01
1.551	1.20E-01
1.552	1.22E-01
1.553	1.23E-01
1.554	1.24E-01
1.555	1.25E-01
1.556	1.27E-01
1.557	1.28E-01
1.558	1.29E-01
1.559	1.31E-01
1.56	1.32E-01
1.561	1.34E-01
1.562	1.35E-01
1.563	1.36E-01
1.564	1.38E-01
1.565	1.39E-01
1.566	1.41E-01
1.567	1.42E-01
1.568	1.44E-01
1.569	1.45E-01
1.57	1.47E-01
1.571	1.49E-01
1.572	1.50E-01
1.573	1.52E-01
1.574	1.54E-01
1.575	1.56E-01
1.576	1.58E-01
1.577	1.60E-01
1.578	1.62E-01
1.579	1.64E-01
1.58	1.66E-01
1.581	1.68E-01
1.582	1.71E-01
1.583	1.73E-01
1.584	1.76E-01
1.585	1.79E-01
1.586	1.82E-01
1.587	1.85E-01
1.588	1.88E-01
1.589	1.91E-01
1.59	1.95E-01
1.591	1.99E-01
1.592	2.03E-01
1.593	2.08E-01
1.594	2.13E-01
1.595	2.18E-01
1.596	2.23E-01
1.597	2.29E-01
1.598	2.35E-01
1.599	2.41E-01
1.6	2.47E-01
1.601	2.54E-01
1.602	2.60E-01
1.603	2.67E-01
1.604	2.73E-01
1.605	2.79E-01
1.606	2.85E-01
1.607	2.90E-01
1.608	2.94E-01
1.609	2.97E-01
1.61	2.99E-01
1.611	3.00E-01
1.612	3.00E-01
1.613	2.99E-01
1.614	2.97E-01
1.615	2.95E-01
1.616	2.91E-01
1.617	2.87E-01
1.618	2.83E-01
1.619	2.79E-01
1.62	2.74E-01
1.621	2.70E-01
1.622	2.65E-01
1.623	2.61E-01
1.624	2.57E-01
1.625	2.53E-01
1.626	2.49E-01
1.627	2.46E-01
1.628	2.42E-01
1.629	2.39E-01
1.63	2.37E-01
1.631	2.34E-01
1.632	2.32E-01
1.633	2.30E-01
1.634	2.28E-01
1.635	2.26E-01
1.636	2.24E-01
1.637	2.23E-01
1.638	2.21E-01
1.639	2.20E-01
1.64	2.19E-01
1.641	2.18E-01
1.642	2.17E-01
1.643	2.16E-01
1.644	2.16E-01
1.645	2.15E-01
1.646	2.14E-01
1.647	2.14E-01
1.648	2.13E-01
1.649	2.13E-01
1.65	2.13E-01
1.651	2.13E-01
1.652	2.12E-01
1.653	2.12E-01
1.654	2.12E-01
1.655	2.12E-01
1.656	2.12E-01
1.657	2.12E-01
1.658	2.12E-01
1.659	2.12E-01
1.66	2.12E-01
1.661	2.13E-01
1.662	2.13E-01
1.663	2.13E-01
1.664	2.13E-01
1.665	2.14E-01
1.666	2.14E-01
1.667	2.14E-01
1.668	2.15E-01
1.669	2.15E-01
1.67	2.16E-01
1.671	2.16E-01
1.672	2.17E-01
1.673	2.17E-01
1.674	2.18E-01
1.675	2.18E-01
1.676	2.19E-01
1.677	2.19E-01
1.678	2.20E-01
1.679	2.21E-01
1.68	2.21E-01
1.681	2.22E-01
1.682	2.23E-01
1.683	2.23E-01
1.684	2.24E-01
1.685	2.25E-01
1.686	2.26E-01
1.687	2.26E-01
1.688	2.27E-01
1.689	2.28E-01
1.69	2.29E-01
1.691	2.30E-01
1.692	2.30E-01
1.693	2.31E-01
1.694	2.32E-01
1.695	2.33E-01
1.696	2.34E-01
1.697	2.34E-01
1.698	2.35E-01
1.699	2.36E-01
1.7	2.37E-01
1.701	2.38E-01
1.702	2.38E-01
1.703	2.39E-01
1.704	2.40E-01
1.705	2.41E-01
1.706	2.42E-01
1.707	2.42E-01
1.708	2.43E-01
1.709	2.44E-01
1.71	2.44E-01
1.711	2.45E-01
1.712	2.45E-01
1.713	2.46E-01
1.714	2.46E-01
1.715	2.47E-01
1.716	2.47E-01
1.717	2.48E-01
1.718	2.48E-01
1.719	2.49E-01
1.72	2.49E-01
1.721	2.49E-01
1.722	2.50E-01
1.723	2.50E-01
1.724	2.50E-01
1.725	2.50E-01
1.726	2.50E-01
1.727	2.50E-01
1.728	2.50E-01
1.729	2.50E-01
1.73	2.50E-01
1.731	2.50E-01
1.732	2.50E-01
1.733	2.50E-01
1.734	2.50E-01
1.735	2.50E-01
1.736	2.49E-01
1.737	2.49E-01
1.738	2.49E-01
1.739	2.49E-01
1.74	2.48E-01
1.741	2.48E-01
1.742	2.48E-01
1.743	2.47E-01
1.744	2.47E-01
1.745	2.46E-01
1.746	2.46E-01
1.747	2.46E-01
1.748	2.45E-01
1.749	2.45E-01
1.75	2.44E-01
1.751	2.44E-01
1.752	2.43E-01
1.753	2.43E-01
1.754	2.42E-01
1.755	2.42E-01
1.756	2.41E-01
1.757	2.41E-01
1.758	2.40E-01
1.759	2.40E-01
1.76	2.39E-01
1.761	2.39E-01
1.762	2.38E-01
1.763	2.38E-01
1.764	2.37E-01
1.765	2.37E-01
1.766	2.36E-01
1.767	2.36E-01
1.768	2.35E-01
1.769	2.35E-01
1.77	2.34E-01
1.771	2.34E-01
1.772	2.33E-01
1.773	2.33E-01
1.774	2.32E-01
1.775	2.32E-01
1.776	2.31E-01
1.777	2.31E-01
1.778	2.31E-01
1.779	2.30E-01
1.78	2.30E-01
1.781	2.29E-01
1.782	2.29E-01
1.783	2.29E-01
1.784	2.28E-01
1.785	2.28E-01
1.786	2.28E-01
1.787	2.28E-01
1.788	2.27E-01
1.789	2.27E-01
1.79	2.27E-01
1.791	2.26E-01
1.792	2.26E-01
1.793	2.26E-01
1.794	2.26E-01
1.795	2.26E-01
1.796	2.25E-01
1.797	2.25E-01
1.798	2.25E-01
1.799	2.25E-01
1.8	2.25E-01
1.801	2.25E-01
1.802	2.25E-01
1.803	2.25E-01
1.804	2.25E-01
1.805	2.24E-01
1.806	2.24E-01
1.807	2.24E-01
1.808	2.24E-01
1.809	2.24E-01
1.81	2.24E-01
1.811	2.25E-01
1.812	2.25E-01
1.813	2.25E-01
1.814	2.25E-01
1.815	2.25E-01
1.816	2.25E-01
1.817	2.25E-01
1.818	2.25E-01
1.819	2.25E-01
1.82	2.26E-01
1.821	2.26E-01
1.822	2.26E-01
1.823	2.26E-01
1.824	2.27E-01
1.825	2.27E-01
1.826	2.27E-01
1.827	2.28E-01
1.828	2.28E-01
1.829	2.28E-01
1.83	2.29E-01
1.831	2.29E-01
1.832	2.30E-01
1.833	2.30E-01
1.834	2.31E-01
1.835	2.31E-01
1.836	2.32E-01
1.837	2.32E-01
1.838	2.33E-01
1.839	2.34E-01
1.84	2.34E-01
1.841	2.35E-01
1.842	2.36E-01
1.843	2.37E-01
1.844	2.37E-01
1.845	2.38E-01
1.846	2.39E-01
1.847	2.40E-01
1.848	2.41E-01
1.849	2.42E-01
1.85	2.43E-01
1.851	2.44E-01
1.852	2.45E-01
1.853	2.46E-01
1.854	2.48E-01
1.855	2.49E-01
1.856	2.50E-01
1.857	2.52E-01
1.858	2.53E-01
1.859	2.55E-01
1.86	2.56E-01
1.861	2.58E-01
1.862	2.59E-01
1.863	2.61E-01
1.864	2.63E-01
1.865	2.65E-01
1.866	2.67E-01
1.867	2.69E-01
1.868	2.71E-01
1.869	2.74E-01
1.87	2.76E-01
1.871	2.78E-01
1.872	2.81E-01
1.873	2.84E-01
1.874	2.87E-01
1.875	2.90E-01
1.876	2.93E-01
1.877	2.96E-01
1.878	2.99E-01
1.879	3.03E-01
1.88	3.07E-01
1.881	3.11E-01
1.882	3.15E-01
1.883	3.19E-01
1.884	3.24E-01
1.885	3.29E-01
1.886	3.34E-01
1.887	3.39E-01
1.888	3.45E-01
1.889	3.51E-01
1.89	3.57E-01
1.891	3.64E-01
1.892	3.71E-01
1.893	3.78E-01
1.894	3.86E-01
1.895	3.95E-01
1.896	4.03E-01
1.897	4.13E-01
1.898	4.23E-01
1.899	4.34E-01
1.9	4.45E-01
1.901	4.57E-01
1.902	4.70E-01
1.903	4.84E-01
1.904	4.99E-01
1.905	5.15E-01
1.906	5.32E-01
1.907	5.51E-01
1.908	5.71E-01
1.909	5.92E-01
1.91	6.15E-01
1.911	6.40E-01
1.912	6.67E-01
1.913	6.97E-01
1.914	7.28E-01
1.915	7.63E-01
1.916	8.01E-01
1.917	8.42E-01
1.918	8.87E-01
1.919	9.36E-01
1.92	9.90E-01
1.921	1.05E+00
1.922	1.11E+00
1.923	1.19E+00
1.924	1.26E+00
1.925	1.35E+00
1.926	1.45E+00
1.927	1.55E+00
1.928	1.66E+00
1.929	1.79E+00
1.93	1.93E+00
1.931	2.08E+00
1.932	2.24E+00
1.933	2.41E+00
1.934	2.59E+00
1.935	2.78E+00
1.936	2.98E+00
1.937	3.17E+00
1.938	3.36E+00
1.939	3.54E+00
1.94	3.69E+00
1.941	3.81E+00
1.942	3.89E+00
1.943	3.94E+00
1.944	3.93E+00
1.945	3.89E+00
1.946	3.80E+00
1.947	3.68E+00
1.948	3.54E+00
1.949	3.38E+00
1.95	3.20E+00
1.951	3.03E+00
1.952	2.85E+00
1.953	2.68E+00
1.954	2.51E+00
1.955	2.35E+00
1.956	2.21E+00
1.957	2.07E+00
1.958	1.94E+00
1.959	1.83E+00
1.96	1.72E+00
1.961	1.62E+00
1.962	1.53E+00
1.963	1.45E+00
1.964	1.37E+00
1.965	1.31E+00
1.966	1.24E+00
1.967	1.18E+00
1.968	1.13E+00
1.969	1.08E+00
1.97	1.04E+00
1.971	9.95E-01
1.972	9.56E-01
1.973	9.21E-01
1.974	8.88E-01
1.975	8.57E-01
1.976	8.29E-01
1.977	8.03E-01
1.978	7.78E-01
1.979	7.56E-01
1.98	7.35E-01
1.981	7.15E-01
1.982	6.96E-01
1.983	6.79E-01
1.984	6.63E-01
1.985	6.48E-01
1.986	6.33E-01
1.987	6.20E-01
1.988	6.07E-01
1.989	5.95E-01
1.99	5.84E-01
1.991	5.74E-01
1.992	5.64E-01
1.993	5.55E-01
1.994	5.46E-01
1.995	5.38E-01
1.996	5.30E-01
1.997	5.22E-01
1.998	5.15E-01
1.999	5.09E-01
2	5.02E-01
2.001	4.96E-01
2.002	4.91E-01
2.003	4.85E-01
2.004	4.80E-01
2.005	4.75E-01
2.006	4.71E-01
2.007	4.67E-01
2.008	4.63E-01
2.009	4.59E-01
2.01	4.55E-01
2.011	4.52E-01
2.012	4.48E-01
2.013	4.45E-01
2.014	4.42E-01
2.015	4.40E-01
2.016	4.37E-01
2.017	4.35E-01
2.018	4.32E-01
2.019	4.30E-01
2.02	4.28E-01
2.021	4.26E-01
2.022	4.24E-01
2.023	4.23E-01
2.024	4.21E-01
2.025	4.20E-01
2.026	4.18E-01
2.027	4.17E-01
2.028	4.16E-01
2.029	4.15E-01
2.03	4.14E-01
2.031	4.13E-01
2.032	4.12E-01
2.033	4.12E-01
2.034	4.11E-01
2.035	4.11E-01
2.036	4.10E-01
2.037	4.10E-01
2.038	4.10E-01
2.039	4.10E-01
2.04	4.10E-01
2.041	4.10E-01
2.042	4.10E-01
2.043	4.10E-01
2.044	4.10E-01
2.045	4.10E-01
2.046	4.11E-01
2.047	4.11E-01
2.048	4.12E-01
2.049	4.12E-01
2.05	4.13E-01
2.051	4.14E-01
2.052	4.15E-01
2.053	4.16E-01
2.054	4.17E-01
2.055	4.18E-01
2.056	4.19E-01
2.057	4.21E-01
2.058	4.22E-01
2.059	4.23E-01
2.06	4.25E-01
2.061	4.27E-01
2.062	4.29E-01
2.063	4.30E-01
2.064	4.32E-01
2.065	4.35E-01
2.066	4.37E-01
2.067	4.39E-01
2.068	4.42E-01
2.069	4.44E-01
2.07	4.47E-01
2.071	4.50E-01
2.072	4.53E-01
2.073	4.56E-01
2.074	4.60E-01
2.075	4.63E-01
2.076	4.67E-01
2.077	4.71E-01
2.078	4.75E-01
2.079	4.79E-01
2.08	4.84E-01
2.081	4.89E-01
2.082	4.94E-01
2.083	5.00E-01
2.084	5.05E-01
2.085	5.11E-01
2.086	5.18E-01
2.087	5.25E-01
2.088	5.32E-01
2.089	5.40E-01
2.09	5.48E-01
2.091	5.57E-01
2.092	5.67E-01
2.093	5.77E-01
2.094	5.88E-01
2.095	5.99E-01
2.096	6.12E-01
2.097	6.25E-01
2.098	6.40E-01
2.099	6.55E-01
2.1	6.72E-01
2.101	6.91E-01
2.102	7.11E-01
2.103	7.33E-01
2.104	7.57E-01
2.105	7.83E-01
2.106	8.12E-01
2.107	8.44E-01
2.108	8.79E-01
2.109	9.17E-01
2.11	9.61E-01
2.111	1.01E+00
2.112	1.06E+00
2.113	1.12E+00
2.114	1.19E+00
2.115	1.26E+00
2.116	1.35E+00
2.117	1.44E+00
2.118	1.55E+00
2.119	1.67E+00
2.12	1.80E+00
2.121	1.94E+00
2.122	2.10E+00
2.123	2.26E+00
2.124	2.44E+00
2.125	2.61E+00
2.126	2.78E+00
2.127	2.94E+00
2.128	3.06E+00
2.129	3.15E+00
2.13	3.19E+00
2.131	3.18E+00
2.132	3.12E+00
2.133	3.02E+00
2.134	2.90E+00
2.135	2.75E+00
2.136	2.59E+00
2.137	2.43E+00
2.138	2.27E+00
2.139	2.13E+00
2.14	1.99E+00
2.141	1.87E+00
2.142	1.76E+00
2.143	1.66E+00
2.144	1.57E+00
2.145	1.49E+00
2.146	1.42E+00
2.147	1.35E+00
2.148	1.30E+00
2.149	1.25E+00
2.15	1.20E+00
2.151	1.16E+00
2.152	1.13E+00
2.153	1.10E+00
2.154	1.07E+00
2.155	1.05E+00
2.156	1.02E+00
2.157	1.00E+00
2.158	9.88E-01
2.159	9.73E-01
2.16	9.59E-01
2.161	9.48E-01
2.162	9.37E-01
2.163	9.29E-01
2.164	9.21E-01
2.165	9.14E-01
2.166	9.09E-01
2.167	9.04E-01
2.168	9.00E-01
2.169	8.98E-01
2.17	8.95E-01
2.171	8.94E-01
2.172	8.93E-01
2.173	8.93E-01
2.174	8.93E-01
2.175	8.94E-01
2.176	8.96E-01
2.177	8.98E-01
2.178	9.00E-01
2.179	9.03E-01
2.18	9.06E-01
2.181	9.10E-01
2.182	9.14E-01
2.183	9.19E-01
2.184	9.24E-01
2.185	9.29E-01
2.186	9.35E-01
2.187	9.41E-01
2.188	9.47E-01
2.189	9.54E-01
2.19	9.61E-01
2.191	9.68E-01
2.192	9.76E-01
2.193	9.84E-01
2.194	9.92E-01
2.195	1.00E+00
2.196	1.01E+00
2.197	1.02E+00
2.198	1.03E+00
2.199	1.04E+00
2.2	1.05E+00
2.201	1.06E+00
2.202	1.07E+00
2.203	1.08E+00
2.204	1.09E+00
2.205	1.10E+00
2.206	1.12E+00
2.207	1.13E+00
2.208	1.14E+00
2.209	1.15E+00
2.21	1.17E+00
2.211	1.18E+00
2.212	1.19E+00
2.213	1.21E+00
2.214	1.22E+00
2.215	1.24E+00
2.216	1.25E+00
2.217	1.27E+00
2.218	1.28E+00
2.219	1.30E+00
2.22	1.32E+00
2.221	1.33E+00
2.222	1.35E+00
2.223	1.37E+00
2.224	1.38E+00
2.225	1.40E+00
2.226	1.42E+00
2.227	1.44E+00
2.228	1.46E+00
2.229	1.48E+00
2.23	1.50E+00
2.231	1.52E+00
2.232	1.54E+00
2.233	1.56E+00
2.234	1.58E+00
2.235	1.60E+00
2.236	1.62E+00
2.237	1.64E+00
2.238	1.66E+00
2.239	1.69E+00
2.24	1.71E+00
2.241	1.73E+00
2.242	1.75E+00
2.243	1.78E+00
2.244	1.80E+00
2.245	1.82E+00
2.246	1.85E+00
2.247	1.87E+00
2.248	1.89E+00
2.249	1.92E+00
2.25	1.94E+00
2.251	1.97E+00
2.252	1.99E+00
2.253	2.02E+00
2.254	2.04E+00
2.255	2.06E+00
2.256	2.09E+00
2.257	2.11E+00
2.258	2.14E+00
2.259	2.16E+00
2.26	2.19E+00
2.261	2.21E+00
2.262	2.23E+00
2.263	2.26E+00
2.264	2.28E+00
2.265	2.30E+00
2.266	2.32E+00
2.267	2.35E+00
2.268	2.37E+00
2.269	2.39E+00
2.27	2.41E+00
2.271	2.43E+00
2.272	2.45E+00
2.273	2.47E+00
2.274	2.49E+00
2.275	2.51E+00
2.276	2.53E+00
2.277	2.54E+00
2.278	2.56E+00
2.279	2.58E+00
2.28	2.59E+00
2.281	2.61E+00
2.282	2.62E+00
2.283	2.63E+00
2.284	2.65E+00
2.285	2.66E+00
2.286	2.67E+00
2.287	2.68E+00
2.288	2.69E+00
2.289	2.69E+00
2.29	2.70E+00
2.291	2.71E+00
2.292	2.71E+00
2.293	2.72E+00
2.294	2.72E+00
2.295	2.72E+00
2.296	2.73E+00
2.297	2.73E+00
2.298	2.73E+00
2.299	2.73E+00
2.3	2.73E+00
2.301	2.72E+00
2.302	2.72E+00
2.303	2.72E+00
2.304	2.71E+00
2.305	2.71E+00
2.306	2.70E+00
2.307	2.70E+00
2.308	2.69E+00
2.309	2.68E+00
2.31	2.67E+00
2.311	2.66E+00
2.312	2.65E+00
2.313	2.64E+00
2.314	2.63E+00
2.315	2.62E+00
2.316	2.61E+00
2.317	2.60E+00
2.318	2.59E+00
2.319	2.58E+00
2.32	2.56E+00
2.321	2.55E+00
2.322	2.54E+00
2.323	2.52E+00
2.324	2.51E+00
2.325	2.49E+00
2.326	2.48E+00
2.327	2.47E+00
2.328	2.45E+00
2.329	2.44E+00
2.33	2.42E+00
2.331	2.41E+00
2.332	2.39E+00
2.333	2.37E+00
2.334	2.36E+00
2.335	2.34E+00
2.336	2.33E+00
2.337	2.31E+00
2.338	2.30E+00
2.339	2.28E+00
2.34	2.27E+00
2.341	2.25E+00
2.342	2.24E+00
2.343	2.22E+00
2.344	2.21E+00
2.345	2.19E+00
2.346	2.18E+00
2.347	2.16E+00
2.348	2.15E+00
2.349	2.13E+00
2.35	2.12E+00
2.351	2.10E+00
2.352	2.09E+00
2.353	2.07E+00
2.354	2.06E+00
2.355	2.05E+00
2.356	2.03E+00
2.357	2.02E+00
2.358	2.01E+00
2.359	1.99E+00
2.36	1.98E+00
2.361	1.97E+00
2.362	1.95E+00
2.363	1.94E+00
2.364	1.93E+00
2.365	1.92E+00
2.366	1.91E+00
2.367	1.89E+00
2.368	1.88E+00
2.369	1.87E+00
2.37	1.86E+00
2.371	1.85E+00
2.372	1.84E+00
2.373	1.83E+00
2.374	1.82E+00
2.375	1.81E+00
2.376	1.80E+00
2.377	1.79E+00
2.378	1.78E+00
2.379	1.77E+00
2.38	1.76E+00
2.381	1.75E+00
2.382	1.74E+00
2.383	1.73E+00
2.384	1.72E+00
2.385	1.71E+00
2.386	1.71E+00
2.387	1.70E+00
2.388	1.69E+00
2.389	1.68E+00
2.39	1.68E+00
2.391	1.67E+00
2.392	1.66E+00
2.393	1.65E+00
2.394	1.65E+00
2.395	1.64E+00
2.396	1.63E+00
2.397	1.63E+00
2.398	1.62E+00
2.399	1.62E+00
2.4	1.61E+00
2.401	1.61E+00
2.402	1.60E+00
2.403	1.60E+00
2.404	1.59E+00
2.405	1.59E+00
2.406	1.58E+00
2.407	1.58E+00
2.408	1.57E+00
2.409	1.57E+00
2.41	1.57E+00
2.411	1.56E+00
2.412	1.56E+00
2.413	1.55E+00
2.414	1.55E+00
2.415	1.55E+00
2.416	1.55E+00
2.417	1.54E+00
2.418	1.54E+00
2.419	1.54E+00
2.42	1.54E+00
2.421	1.54E+00
2.422	1.53E+00
2.423	1.53E+00
2.424	1.53E+00
2.425	1.53E+00
2.426	1.53E+00
2.427	1.53E+00
2.428	1.53E+00
2.429	1.53E+00
2.43	1.53E+00
2.431	1.53E+00
2.432	1.53E+00
2.433	1.53E+00
2.434	1.53E+00
2.435	1.53E+00
2.436	1.54E+00
2.437	1.54E+00
2.438	1.54E+00
2.439	1.54E+00
2.44	1.54E+00
2.441	1.55E+00
2.442	1.55E+00
2.443	1.55E+00
2.444	1.56E+00
2.445	1.56E+00
2.446	1.57E+00
2.447	1.57E+00
2.448	1.58E+00
2.449	1.58E+00
2.45	1.59E+00
2.451	1.59E+00
2.452	1.60E+00
2.453	1.61E+00
2.454	1.61E+00
2.455	1.62E+00
2.456	1.63E+00
2.457	1.64E+00
2.458	1.65E+00
2.459	1.66E+00
2.46	1.67E+00
2.461	1.68E+00
2.462	1.69E+00
2.463	1.70E+00
2.464	1.71E+00
2.465	1.72E+00
2.466	1.74E+00
2.467	1.75E+00
2.468	1.76E+00
2.469	1.78E+00
2.47	1.79E+00
2.471	1.81E+00
2.472	1.82E+00
2.473	1.84E+00
2.474	1.86E+00
2.475	1.88E+00
2.476	1.90E+00
2.477	1.92E+00
2.478	1.94E+00
2.479	1.96E+00
2.48	1.98E+00
2.481	2.00E+00
2.482	2.02E+00
2.483	2.04E+00
2.484	2.07E+00
2.485	2.09E+00
2.486	2.12E+00
2.487	2.14E+00
2.488	2.16E+00
2.489	2.19E+00
2.49	2.22E+00
2.491	2.24E+00
2.492	2.27E+00
2.493	2.29E+00
2.494	2.32E+00
2.495	2.34E+00
2.496	2.37E+00
2.497	2.39E+00
2.498	2.42E+00
2.499	2.44E+00
2.5	2.46E+00
2.501	2.49E+00
2.502	2.51E+00
2.503	2.53E+00
2.504	2.54E+00
2.505	2.56E+00
2.506	2.58E+00
2.507	2.59E+00
2.508	2.60E+00
2.509	2.62E+00
2.51	2.63E+00
2.511	2.63E+00
2.512	2.64E+00
2.513	2.65E+00
2.514	2.65E+00
2.515	2.65E+00
2.516	2.65E+00
2.517	2.65E+00
2.518	2.65E+00
2.519	2.65E+00
2.52	2.65E+00
2.521	2.64E+00
2.522	2.64E+00
2.523	2.63E+00
2.524	2.62E+00
2.525	2.62E+00
2.526	2.61E+00
2.527	2.60E+00
2.528	2.60E+00
2.529	2.59E+00
2.53	2.58E+00
2.531	2.58E+00
2.532	2.57E+00
2.533	2.56E+00
2.534	2.56E+00
2.535	2.55E+00
2.536	2.55E+00
2.537	2.54E+00
2.538	2.54E+00
2.539	2.54E+00
2.54	2.54E+00
2.541	2.54E+00
2.542	2.53E+00
2.543	2.54E+00
2.544	2.54E+00
2.545	2.54E+00
2.546	2.54E+00
2.547	2.54E+00
2.548	2.55E+00
2.549	2.56E+00
2.55	2.56E+00
2.551	2.57E+00
2.552	2.58E+00
2.553	2.59E+00
2.554	2.60E+00
2.555	2.61E+00
2.556	2.62E+00
2.557	2.64E+00
2.558	2.65E+00
2.559	2.67E+00
2.56	2.68E+00
2.561	2.70E+00
2.562	2.72E+00
2.563	2.74E+00
2.564	2.76E+00
2.565	2.78E+00
2.566	2.81E+00
2.567	2.83E+00
2.568	2.86E+00
2.569	2.88E+00
2.57	2.91E+00
2.571	2.94E+00
2.572	2.97E+00
2.573	3.00E+00
2.574	3.04E+00
2.575	3.07E+00
2.576	3.11E+00
2.577	3.14E+00
2.578	3.18E+00
2.579	3.22E+00
2.58	3.26E+00
2.581	3.30E+00
2.582	3.35E+00
2.583	3.39E+00
2.584	3.44E+00
2.585	3.48E+00
2.586	3.53E+00
2.587	3.58E+00
2.588	3.63E+00
2.589	3.68E+00
2.59	3.74E+00
2.591	3.79E+00
2.592	3.85E+00
2.593	3.90E+00
2.594	3.96E+00
2.595	4.02E+00
2.596	4.08E+00
2.597	4.14E+00
2.598	4.20E+00
2.599	4.26E+00
2.6	4.32E+00
2.601	4.38E+00
2.602	4.45E+00
2.603	4.51E+00
2.604	4.57E+00
2.605	4.63E+00
2.606	4.69E+00
2.607	4.76E+00
2.608	4.82E+00
2.609	4.88E+00
2.61	4.94E+00
2.611	4.99E+00
2.612	5.05E+00
2.613	5.10E+00
2.614	5.16E+00
2.615	5.21E+00
2.616	5.26E+00
2.617	5.30E+00
2.618	5.35E+00
2.619	5.39E+00
2.62	5.43E+00
2.621	5.46E+00
2.622	5.50E+00
2.623	5.52E+00
2.624	5.55E+00
2.625	5.57E+00
2.626	5.59E+00
2.627	5.61E+00
2.628	5.62E+00
2.629	5.63E+00
2.63	5.64E+00
2.631	5.64E+00
2.632	5.64E+00
2.633	5.64E+00
2.634	5.63E+00
2.635	5.62E+00
2.636	5.61E+00
2.637	5.59E+00
2.638	5.57E+00
2.639	5.55E+00
2.64	5.53E+00
2.641	5.51E+00
2.642	5.48E+00
2.643	5.45E+00
2.644	5.42E+00
2.645	5.39E+00
2.646	5.36E+00
2.647	5.33E+00
2.648	5.29E+00
2.649	5.26E+00
2.65	5.22E+00
2.651	5.19E+00
2.652	5.15E+00
2.653	5.12E+00
2.654	5.08E+00
2.655	5.05E+00
2.656	5.02E+00
2.657	4.98E+00
2.658	4.95E+00
2.659	4.92E+00
2.66	4.89E+00
2.661	4.86E+00
2.662	4.83E+00
2.663	4.80E+00
2.664	4.78E+00
2.665	4.75E+00
2.666	4.73E+00
2.667	4.71E+00
2.668	4.69E+00
2.669	4.68E+00
2.67	4.66E+00
2.671	4.65E+00
2.672	4.64E+00
2.673	4.63E+00
2.674	4.62E+00
2.675	4.62E+00
2.676	4.62E+00
2.677	4.62E+00
2.678	4.63E+00
2.679	4.64E+00
2.68	4.65E+00
2.681	4.66E+00
2.682	4.68E+00
2.683	4.70E+00
2.684	4.73E+00
2.685	4.76E+00
2.686	4.79E+00
2.687	4.83E+00
2.688	4.87E+00
2.689	4.92E+00
2.69	4.97E+00
2.691	5.03E+00
2.692	5.09E+00
2.693	5.16E+00
2.694	5.24E+00
2.695	5.32E+00
2.696	5.41E+00
2.697	5.51E+00
2.698	5.61E+00
2.699	5.73E+00
2.7	5.85E+00
2.701	5.99E+00
2.702	6.13E+00
2.703	6.29E+00
2.704	6.45E+00
2.705	6.63E+00
2.706	6.83E+00
2.707	7.03E+00
2.708	7.25E+00
2.709	7.48E+00
2.71	7.73E+00
2.711	8.00E+00
2.712	8.28E+00
2.713	8.57E+00
2.714	8.88E+00
2.715	9.21E+00
2.716	9.55E+00
2.717	9.90E+00
2.718	1.03E+01
2.719	1.06E+01
2.72	1.10E+01
2.721	1.14E+01
2.722	1.17E+01
2.723	1.21E+01
2.724	1.24E+01
2.725	1.27E+01
2.726	1.30E+01
2.727	1.33E+01
2.728	1.35E+01
2.729	1.36E+01
2.73	1.37E+01
2.731	1.38E+01
2.732	1.38E+01
2.733	1.37E+01
2.734	1.36E+01
2.735	1.34E+01
2.736	1.32E+01
2.737	1.29E+01
2.738	1.26E+01
2.739	1.23E+01
2.74	1.20E+01
2.741	1.16E+01
2.742	1.13E+01
2.743	1.09E+01
2.744	1.05E+01
2.745	1.02E+01
2.746	9.81E+00
2.747	9.46E+00
2.748	9.12E+00
2.749	8.80E+00
2.75	8.48E+00
2.751	8.19E+00
2.752	7.90E+00
2.753	7.63E+00
2.754	7.37E+00
2.755	7.12E+00
2.756	6.89E+00
2.757	6.67E+00
2.758	6.46E+00
2.759	6.27E+00
2.76	6.08E+00
2.761	5.90E+00
2.762	5.74E+00
2.763	5.58E+00
2.764	5.43E+00
2.765	5.29E+00
2.766	5.16E+00
2.767	5.03E+00
2.768	4.91E+00
2.769	4.80E+00
2.77	4.70E+00
2.771	4.60E+00
2.772	4.50E+00
2.773	4.41E+00
2.774	4.32E+00
2.775	4.24E+00
2.776	4.16E+00
2.777	4.09E+00
2.778	4.02E+00
2.779	3.95E+00
2.78	3.89E+00
2.781	3.83E+00
2.782	3.77E+00
2.783	3.72E+00
2.784	3.67E+00
2.785	3.62E+00
2.786	3.57E+00
2.787	3.53E+00
2.788	3.48E+00
2.789	3.44E+00
2.79	3.40E+00
2.791	3.37E+00
2.792	3.33E+00
2.793	3.30E+00
2.794	3.27E+00
2.795	3.23E+00
2.796	3.21E+00
2.797	3.18E+00
2.798	3.15E+00
2.799	3.12E+00
2.8	3.10E+00
2.801	3.08E+00
2.802	3.05E+00
2.803	3.03E+00
2.804	3.01E+00
2.805	2.99E+00
2.806	2.98E+00
2.807	2.96E+00
2.808	2.94E+00
2.809	2.93E+00
2.81	2.91E+00
2.811	2.90E+00
2.812	2.88E+00
2.813	2.87E+00
2.814	2.86E+00
2.815	2.84E+00
2.816	2.83E+00
2.817	2.82E+00
2.818	2.81E+00
2.819	2.80E+00
2.82	2.79E+00
2.821	2.78E+00
2.822	2.78E+00
2.823	2.77E+00
2.824	2.76E+00
2.825	2.75E+00
2.826	2.75E+00
2.827	2.74E+00
2.828	2.74E+00
2.829	2.73E+00
2.83	2.73E+00
2.831	2.72E+00
2.832	2.72E+00
2.833	2.71E+00
2.834	2.71E+00
2.835	2.70E+00
2.836	2.70E+00
2.837	2.70E+00
2.838	2.69E+00
2.839	2.69E+00
2.84	2.69E+00
2.841	2.69E+00
2.842	2.68E+00
2.843	2.68E+00
2.844	2.68E+00
2.845	2.68E+00
2.846	2.67E+00
2.847	2.67E+00
2.848	2.67E+00
2.849	2.67E+00
2.85	2.67E+00
2.851	2.66E+00
2.852	2.66E+00
2.853	2.66E+00
2.854	2.66E+00
2.855	2.66E+00
2.856	2.65E+00
2.857	2.65E+00
2.858	2.65E+00
2.859	2.65E+00
2.86	2.65E+00
2.861	2.65E+00
2.862	2.64E+00
2.863	2.64E+00
2.864	2.64E+00
2.865	2.64E+00
2.866	2.63E+00
2.867	2.63E+00
2.868	2.63E+00
2.869	2.63E+00
2.87	2.62E+00
2.871	2.62E+00
2.872	2.62E+00
2.873	2.62E+00
2.874	2.61E+00
2.875	2.61E+00
2.876	2.61E+00
2.877	2.61E+00
2.878	2.60E+00
2.879	2.60E+00
2.88	2.60E+00
2.881	2.59E+00
2.882	2.59E+00
2.883	2.59E+00
2.884	2.58E+00
2.885	2.58E+00
2.886	2.58E+00
2.887	2.58E+00
2.888	2.57E+00
2.889	2.57E+00
2.89	2.57E+00
2.891	2.56E+00
2.892	2.56E+00
2.893	2.56E+00
2.894	2.55E+00
2.895	2.55E+00
2.896	2.55E+00
2.897	2.55E+00
2.898	2.54E+00
2.899	2.54E+00
2.9	2.54E+00
2.901	2.54E+00
2.902	2.53E+00
2.903	2.53E+00
2.904	2.53E+00
2.905	2.53E+00
2.906	2.52E+00
2.907	2.52E+00
2.908	2.52E+00
2.909	2.52E+00
2.91	2.52E+00
2.911	2.51E+00
2.912	2.51E+00
2.913	2.51E+00
2.914	2.51E+00
2.915	2.51E+00
2.916	2.51E+00
2.917	2.50E+00
2.918	2.50E+00
2.919	2.50E+00
2.92	2.50E+00
2.921	2.50E+00
2.922	2.50E+00
2.923	2.50E+00
2.924	2.50E+00
2.925	2.50E+00
2.926	2.50E+00
2.927	2.50E+00
2.928	2.50E+00
2.929	2.50E+00
2.93	2.50E+00
2.931	2.50E+00
2.932	2.50E+00
2.933	2.50E+00
2.934	2.50E+00
2.935	2.50E+00
2.936	2.50E+00
2.937	2.50E+00
2.938	2.50E+00
2.939	2.50E+00
2.94	2.50E+00
2.941	2.50E+00
2.942	2.50E+00
2.943	2.51E+00
2.944	2.51E+00
2.945	2.51E+00
2.946	2.51E+00
2.947	2.51E+00
2.948	2.51E+00
2.949	2.52E+00
2.95	2.52E+00
2.951	2.52E+00
2.952	2.52E+00
2.953	2.52E+00
2.954	2.53E+00
2.955	2.53E+00
2.956	2.53E+00
2.957	2.54E+00
2.958	2.54E+00
2.959	2.54E+00
2.96	2.54E+00
2.961	2.55E+00
2.962	2.55E+00
2.963	2.55E+00
2.964	2.56E+00
2.965	2.56E+00
2.966	2.56E+00
2.967	2.57E+00
2.968	2.57E+00
2.969	2.58E+00
2.97	2.58E+00
2.971	2.58E+00
2.972	2.59E+00
2.973	2.59E+00
2.974	2.60E+00
2.975	2.60E+00
2.976	2.60E+00
2.977	2.61E+00
2.978	2.61E+00
2.979	2.62E+00
2.98	2.62E+00
2.981	2.63E+00
2.982	2.63E+00
2.983	2.64E+00
2.984	2.64E+00
2.985	2.65E+00
2.986	2.66E+00
2.987	2.66E+00
2.988	2.67E+00
2.989	2.67E+00
2.99	2.68E+00
2.991	2.68E+00
2.992	2.69E+00
2.993	2.70E+00
2.994	2.70E+00
2.995	2.71E+00
2.996	2.72E+00
2.997	2.72E+00
2.998	2.73E+00
2.999	2.73E+00
3	2.74E+00
3.001	2.75E+00
3.002	2.76E+00
3.003	2.76E+00
3.004	2.77E+00
3.005	2.78E+00
3.006	2.78E+00
3.007	2.79E+00
3.008	2.80E+00
3.009	2.81E+00
3.01	2.82E+00
3.011	2.82E+00
3.012	2.83E+00
3.013	2.84E+00
3.014	2.85E+00
3.015	2.86E+00
3.016	2.87E+00
3.017	2.87E+00
3.018	2.88E+00
3.019	2.89E+00
3.02	2.90E+00
3.021	2.91E+00
3.022	2.92E+00
3.023	2.93E+00
3.024	2.94E+00
3.025	2.95E+00
3.026	2.96E+00
3.027	2.97E+00
3.028	2.98E+00
3.029	2.99E+00
3.03	3.00E+00
3.031	3.01E+00
3.032	3.02E+00
3.033	3.03E+00
3.034	3.04E+00
3.035	3.05E+00
3.036	3.06E+00
3.037	3.07E+00
3.038	3.08E+00
3.039	3.09E+00
3.04	3.10E+00
3.041	3.12E+00
3.042	3.13E+00
3.043	3.14E+00
3.044	3.15E+00
3.045	3.16E+00
3.046	3.18E+00
3.047	3.19E+00
3.048	3.20E+00
3.049	3.21E+00
3.05	3.23E+00
3.051	3.24E+00
3.052	3.25E+00
3.053	3.26E+00
3.054	3.28E+00
3.055	3.29E+00
3.056	3.31E+00
3.057	3.32E+00
3.058	3.33E+00
3.059	3.35E+00
3.06	3.36E+00
3.061	3.38E+00
3.062	3.39E+00
3.063	3.41E+00
3.064	3.42E+00
3.065	3.44E+00
3.066	3.45E+00
3.067	3.47E+00
3.068	3.48E+00
3.069	3.50E+00
3.07	3.51E+00
3.071	3.53E+00
3.072	3.55E+00
3.073	3.56E+00
3.074	3.58E+00
3.075	3.60E+00
3.076	3.61E+00
3.077	3.63E+00
3.078	3.65E+00
3.079	3.67E+00
3.08	3.68E+00
3.081	3.70E+00
3.082	3.72E+00
3.083	3.74E+00
3.084	3.76E+00
3.085	3.78E+00
3.086	3.79E+00
3.087	3.81E+00
3.088	3.83E+00
3.089	3.85E+00
3.09	3.87E+00
3.091	3.89E+00
3.092	3.91E+00
3.093	3.93E+00
3.094	3.95E+00
3.095	3.98E+00
3.096	4.00E+00
3.097	4.02E+00
3.098	4.04E+00
3.099	4.06E+00
3.1	4.08E+00
3.101	4.11E+00
3.102	4.13E+00
3.103	4.15E+00
3.104	4.17E+00
3.105	4.20E+00
3.106	4.22E+00
3.107	4.24E+00
3.108	4.27E+00
3.109	4.29E+00
3.11	4.32E+00
3.111	4.34E+00
3.112	4.37E+00
3.113	4.39E+00
3.114	4.42E+00
3.115	4.44E+00
3.116	4.47E+00
3.117	4.49E+00
3.118	4.52E+00
3.119	4.55E+00
3.12	4.57E+00
3.121	4.60E+00
3.122	4.63E+00
3.123	4.66E+00
3.124	4.69E+00
3.125	4.71E+00
3.126	4.74E+00
3.127	4.77E+00
3.128	4.80E+00
3.129	4.83E+00
3.13	4.86E+00
3.131	4.89E+00
3.132	4.92E+00
3.133	4.95E+00
3.134	4.98E+00
3.135	5.01E+00
3.136	5.04E+00
3.137	5.07E+00
3.138	5.10E+00
3.139	5.14E+00
3.14	5.17E+00
3.141	5.20E+00
3.142	5.23E+00
3.143	5.27E+00
3.144	5.30E+00
3.145	5.33E+00
3.146	5.37E+00
3.147	5.40E+00
3.148	5.44E+00
3.149	5.47E+00
3.15	5.51E+00
3.151	5.54E+00
3.152	5.58E+00
3.153	5.62E+00
3.154	5.65E+00
3.155	5.69E+00
3.156	5.73E+00
3.157	5.76E+00
3.158	5.80E+00
3.159	5.84E+00
3.16	5.88E+00
3.161	5.92E+00
3.162	5.95E+00
3.163	5.99E+00
3.164	6.03E+00
3.165	6.07E+00
3.166	6.11E+00
3.167	6.16E+00
3.168	6.20E+00
3.169	6.24E+00
3.17	6.28E+00
3.171	6.32E+00
3.172	6.37E+00
3.173	6.41E+00
3.174	6.45E+00
3.175	6.50E+00
3.176	6.54E+00
3.177	6.59E+00
3.178	6.63E+00
3.179	6.68E+00
3.18	6.72E+00
3.181	6.77E+00
3.182	6.82E+00
3.183	6.87E+00
3.184	6.92E+00
3.185	6.97E+00
3.186	7.02E+00
3.187	7.07E+00
3.188	7.12E+00
3.189	7.17E+00
3.19	7.22E+00
3.191	7.27E+00
3.192	7.33E+00
3.193	7.38E+00
3.194	7.44E+00
3.195	7.49E+00
3.196	7.55E+00
3.197	7.61E+00
3.198	7.66E+00
3.199	7.72E+00
3.2	7.78E+00
3.201	7.84E+00
3.202	7.90E+00
3.203	7.97E+00
3.204	8.03E+00
3.205	8.09E+00
3.206	8.16E+00
3.207	8.23E+00
3.208	8.29E+00
3.209	8.36E+00
3.21	8.43E+00
3.211	8.50E+00
3.212	8.57E+00
3.213	8.64E+00
3.214	8.72E+00
3.215	8.79E+00
3.216	8.87E+00
3.217	8.95E+00
3.218	9.03E+00
3.219	9.11E+00
3.22	9.19E+00
3.221	9.27E+00
3.222	9.36E+00
3.223	9.44E+00
3.224	9.53E+00
3.225	9.62E+00
3.226	9.71E+00
3.227	9.80E+00
3.228	9.90E+00
3.229	9.99E+00
3.23	1.01E+01
3.231	1.02E+01
3.232	1.03E+01
3.233	1.04E+01
3.234	1.05E+01
3.235	1.06E+01
3.236	1.07E+01
3.237	1.08E+01
3.238	1.09E+01
3.239	1.11E+01
3.24	1.12E+01
3.241	1.13E+01
3.242	1.14E+01
3.243	1.15E+01
3.244	1.17E+01
3.245	1.18E+01
3.246	1.19E+01
3.247	1.21E+01
3.248	1.22E+01
3.249	1.24E+01
3.25	1.25E+01
3.251	1.26E+01
3.252	1.28E+01
3.253	1.29E+01
3.254	1.31E+01
3.255	1.33E+01
3.256	1.34E+01
3.257	1.36E+01
3.258	1.38E+01
3.259	1.39E+01
3.26	1.41E+01
3.261	1.43E+01
3.262	1.45E+01
3.263	1.47E+01
3.264	1.49E+01
3.265	1.51E+01
3.266	1.53E+01
3.267	1.55E+01
3.268	1.57E+01
3.269	1.59E+01
3.27	1.61E+01
3.271	1.63E+01
3.272	1.65E+01
3.273	1.68E+01
3.274	1.70E+01
3.275	1.73E+01
3.276	1.75E+01
3.277	1.78E+01
3.278	1.80E+01
3.279	1.83E+01
3.28	1.86E+01
3.281	1.88E+01
3.282	1.91E+01
3.283	1.94E+01
3.284	1.97E+01
3.285	2.00E+01
3.286	2.03E+01
3.287	2.06E+01
3.288	2.09E+01
3.289	2.13E+01
3.29	2.16E+01
3.291	2.19E+01
3.292	2.23E+01
3.293	2.26E+01
3.294	2.30E+01
3.295	2.34E+01
3.296	2.37E+01
3.297	2.41E+01
3.298	2.45E+01
3.299	2.49E+01
3.3	2.53E+01
3.301	2.57E+01
3.302	2.61E+01
3.303	2.66E+01
3.304	2.70E+01
3.305	2.74E+01
3.306	2.79E+01
3.307	2.84E+01
3.308	2.88E+01
3.309	2.93E+01
3.31	2.98E+01
3.311	3.02E+01
3.312	3.07E+01
3.313	3.12E+01
3.314	3.17E+01
3.315	3.23E+01
3.316	3.28E+01
3.317	3.33E+01
3.318	3.38E+01
3.319	3.44E+01
3.32	3.49E+01
3.321	3.54E+01
3.322	3.60E+01
3.323	3.65E+01
3.324	3.71E+01
3.325	3.76E+01
3.326	3.82E+01
3.327	3.87E+01
3.328	3.93E+01
3.329	3.98E+01
3.33	4.04E+01
3.331	4.09E+01
3.332	4.15E+01
3.333	4.20E+01
3.334	4.25E+01
3.335	4.30E+01
3.336	4.36E+01
3.337	4.41E+01
3.338	4.46E+01
3.339	4.50E+01
3.34	4.55E+01
3.341	4.60E+01
3.342	4.64E+01
3.343	4.69E+01
3.344	4.73E+01
3.345	4.77E+01
3.346	4.80E+01
3.347	4.84E+01
3.348	4.88E+01
3.349	4.91E+01
3.35	4.94E+01
3.351	4.96E+01
3.352	4.99E+01
3.353	5.01E+01
3.354	5.03E+01
3.355	5.05E+01
3.356	5.07E+01
3.357	5.08E+01
3.358	5.09E+01
3.359	5.10E+01
3.36	5.10E+01
3.361	5.11E+01
3.362	5.11E+01
3.363	5.10E+01
3.364	5.10E+01
3.365	5.09E+01
3.366	5.08E+01
3.367	5.07E+01
3.368	5.06E+01
3.369	5.04E+01
3.37	5.03E+01
3.371	5.01E+01
3.372	4.98E+01
3.373	4.96E+01
3.374	4.94E+01
3.375	4.91E+01
3.376	4.88E+01
3.377	4.85E+01
3.378	4.82E+01
3.379	4.79E+01
3.38	4.76E+01
3.381	4.72E+01
3.382	4.69E+01
3.383	4.65E+01
3.384	4.61E+01
3.385	4.58E+01
3.386	4.54E+01
3.387	4.50E+01
3.388	4.46E+01
3.389	4.43E+01
3.39	4.39E+01
3.391	4.35E+01
3.392	4.31E+01
3.393	4.27E+01
3.394	4.23E+01
3.395	4.19E+01
3.396	4.16E+01
3.397	4.12E+01
3.398	4.08E+01
3.399	4.05E+01
3.4	4.01E+01
3.401	3.97E+01
3.402	3.94E+01
3.403	3.90E+01
3.404	3.87E+01
3.405	3.84E+01
3.406	3.80E+01
3.407	3.77E+01
3.408	3.74E+01
3.409	3.71E+01
3.41	3.68E+01
3.411	3.65E+01
3.412	3.62E+01
3.413	3.60E+01
3.414	3.57E+01
3.415	3.55E+01
3.416	3.52E+01
3.417	3.50E+01
3.418	3.48E+01
3.419	3.46E+01
3.42	3.44E+01
3.421	3.42E+01
3.422	3.40E+01
3.423	3.38E+01
3.424	3.37E+01
3.425	3.35E+01
3.426	3.34E+01
3.427	3.33E+01
3.428	3.32E+01
3.429	3.31E+01
3.43	3.30E+01
3.431	3.30E+01
3.432	3.29E+01
3.433	3.29E+01
3.434	3.28E+01
3.435	3.28E+01
3.436	3.28E+01
3.437	3.28E+01
3.438	3.28E+01
3.439	3.28E+01
3.44	3.28E+01
3.441	3.29E+01
3.442	3.29E+01
3.443	3.29E+01
3.444	3.30E+01
3.445	3.30E+01
3.446	3.30E+01
3.447	3.30E+01
3.448	3.31E+01
3.449	3.30E+01
3.45	3.30E+01
3.451	3.30E+01
3.452	3.29E+01
3.453	3.29E+01
3.454	3.28E+01
3.455	3.27E+01
3.456	3.25E+01
3.457	3.24E+01
3.458	3.23E+01
3.459	3.21E+01
3.46	3.19E+01
3.461	3.17E+01
3.462	3.15E+01
3.463	3.13E+01
3.464	3.11E+01
3.465	3.09E+01
3.466	3.07E+01
3.467	3.05E+01
3.468	3.03E+01
3.469	3.01E+01
3.47	2.99E+01
3.471	2.97E+01
3.472	2.95E+01
3.473	2.93E+01
3.474	2.92E+01
3.475	2.90E+01
3.476	2.89E+01
3.477	2.87E+01
3.478	2.86E+01
3.479	2.85E+01
3.48	2.84E+01
3.481	2.83E+01
3.482	2.82E+01
3.483	2.81E+01
3.484	2.80E+01
3.485	2.80E+01
3.486	2.79E+01
3.487	2.79E+01
3.488	2.78E+01
3.489	2.78E+01
3.49	2.78E+01
3.491	2.78E+01
3.492	2.78E+01
3.493	2.78E+01
3.494	2.78E+01
3.495	2.78E+01
3.496	2.78E+01
3.497	2.78E+01
3.498	2.79E+01
3.499	2.79E+01
3.5	2.79E+01
3.501	2.80E+01
3.502	2.81E+01
3.503	2.81E+01
3.504	2.82E+01
3.505	2.83E+01
3.506	2.83E+01
3.507	2.84E+01
3.508	2.85E+01
3.509	2.86E+01
3.51	2.87E+01
3.511	2.88E+01
3.512	2.89E+01
3.513	2.91E+01
3.514	2.92E+01
3.515	2.93E+01
3.516	2.94E+01
3.517	2.96E+01
3.518	2.97E+01
3.519	2.99E+01
3.52	3.00E+01
3.521	3.02E+01
3.522	3.03E+01
3.523	3.05E+01
3.524	3.07E+01
3.525	3.09E+01
3.526	3.10E+01
3.527	3.12E+01
3.528	3.14E+01
3.529	3.16E+01
3.53	3.18E+01
3.531	3.20E+01
3.532	3.22E+01
3.533	3.24E+01
3.534	3.26E+01
3.535	3.29E+01
3.536	3.31E+01
3.537	3.33E+01
3.538	3.36E+01
3.539	3.38E+01
3.54	3.40E+01
3.541	3.43E+01
3.542	3.45E+01
3.543	3.48E+01
3.544	3.50E+01
3.545	3.53E+01
3.546	3.56E+01
3.547	3.58E+01
3.548	3.61E+01
3.549	3.64E+01
3.55	3.67E+01
3.551	3.69E+01
3.552	3.72E+01
3.553	3.75E+01
3.554	3.78E+01
3.555	3.81E+01
3.556	3.84E+01
3.557	3.87E+01
3.558	3.90E+01
3.559	3.93E+01
3.56	3.96E+01
3.561	3.99E+01
3.562	4.02E+01
3.563	4.05E+01
3.564	4.08E+01
3.565	4.11E+01
3.566	4.14E+01
3.567	4.17E+01
3.568	4.21E+01
3.569	4.24E+01
3.57	4.27E+01
3.571	4.30E+01
3.572	4.33E+01
3.573	4.36E+01
3.574	4.39E+01
3.575	4.42E+01
3.576	4.45E+01
3.577	4.48E+01
3.578	4.51E+01
3.579	4.54E+01
3.58	4.57E+01
3.581	4.60E+01
3.582	4.63E+01
3.583	4.65E+01
3.584	4.68E+01
3.585	4.71E+01
3.586	4.73E+01
3.587	4.76E+01
3.588	4.79E+01
3.589	4.81E+01
3.59	4.84E+01
3.591	4.86E+01
3.592	4.88E+01
3.593	4.90E+01
3.594	4.93E+01
3.595	4.95E+01
3.596	4.97E+01
3.597	4.99E+01
3.598	5.01E+01
3.599	5.02E+01
3.6	5.04E+01
3.601	5.06E+01
3.602	5.07E+01
3.603	5.09E+01
3.604	5.10E+01
3.605	5.11E+01
3.606	5.12E+01
3.607	5.14E+01
3.608	5.15E+01
3.609	5.15E+01
3.61	5.16E+01
3.611	5.17E+01
3.612	5.18E+01
3.613	5.18E+01
3.614	5.19E+01
3.615	5.19E+01
3.616	5.20E+01
3.617	5.20E+01
3.618	5.20E+01
3.619	5.20E+01
3.62	5.20E+01
3.621	5.20E+01
3.622	5.20E+01
3.623	5.20E+01
3.624	5.19E+01
3.625	5.19E+01
3.626	5.19E+01
3.627	5.18E+01
3.628	5.18E+01
3.629	5.17E+01
3.63	5.17E+01
3.631	5.16E+01
3.632	5.15E+01
3.633	5.14E+01
3.634	5.14E+01
3.635	5.13E+01
3.636	5.12E+01
3.637	5.11E+01
3.638	5.10E+01
3.639	5.09E+01
3.64	5.08E+01
3.641	5.07E+01
3.642	5.06E+01
3.643	5.05E+01
3.644	5.04E+01
3.645	5.03E+01
3.646	5.02E+01
3.647	5.01E+01
3.648	5.00E+01
3.649	4.99E+01
3.65	4.98E+01
3.651	4.97E+01
3.652	4.96E+01
3.653	4.95E+01
3.654	4.95E+01
3.655	4.94E+01
3.656	4.93E+01
3.657	4.92E+01
3.658	4.91E+01
3.659	4.90E+01
3.66	4.90E+01
3.661	4.89E+01
3.662	4.88E+01
3.663	4.88E+01
3.664	4.87E+01
3.665	4.86E+01
3.666	4.86E+01
3.667	4.85E+01
3.668	4.85E+01
3.669	4.85E+01
3.67	4.84E+01
3.671	4.84E+01
3.672	4.84E+01
3.673	4.84E+01
3.674	4.84E+01
3.675	4.84E+01
3.676	4.84E+01
3.677	4.84E+01
3.678	4.84E+01
3.679	4.84E+01
3.68	4.85E+01
3.681	4.85E+01
3.682	4.86E+01
3.683	4.86E+01
3.684	4.87E+01
3.685	4.87E+01
3.686	4.88E+01
3.687	4.89E+01
3.688	4.90E+01
3.689	4.91E+01
3.69	4.92E+01
3.691	4.93E+01
3.692	4.94E+01
3.693	4.96E+01
3.694	4.97E+01
3.695	4.99E+01
3.696	5.00E+01
3.697	5.02E+01
3.698	5.04E+01
3.699	5.06E+01
3.7	5.07E+01
3.701	5.10E+01
3.702	5.12E+01
3.703	5.14E+01
3.704	5.16E+01
3.705	5.19E+01
3.706	5.21E+01
3.707	5.24E+01
3.708	5.27E+01
3.709	5.29E+01
3.71	5.32E+01
3.711	5.35E+01
3.712	5.38E+01
3.713	5.42E+01
3.714	5.45E+01
3.715	5.48E+01
3.716	5.52E+01
3.717	5.56E+01
3.718	5.59E+01
3.719	5.63E+01
3.72	5.67E+01
3.721	5.71E+01
3.722	5.75E+01
3.723	5.80E+01
3.724	5.84E+01
3.725	5.88E+01
3.726	5.93E+01
3.727	5.97E+01
3.728	6.02E+01
3.729	6.07E+01
3.73	6.12E+01
3.731	6.17E+01
3.732	6.22E+01
3.733	6.27E+01
3.734	6.32E+01
3.735	6.37E+01
3.736	6.43E+01
3.737	6.48E+01
3.738	6.53E+01
3.739	6.59E+01
3.74	6.64E+01
3.741	6.70E+01
3.742	6.76E+01
3.743	6.81E+01
3.744	6.87E+01
3.745	6.93E+01
3.746	6.98E+01
3.747	7.04E+01
3.748	7.10E+01
3.749	7.15E+01
3.75	7.21E+01
3.751	7.27E+01
3.752	7.32E+01
3.753	7.38E+01
3.754	7.43E+01
3.755	7.49E+01
3.756	7.54E+01
3.757	7.59E+01
3.758	7.65E+01
3.759	7.70E+01
3.76	7.75E+01
3.761	7.80E+01
3.762	7.85E+01
3.763	7.89E+01
3.764	7.94E+01
3.765	7.99E+01
3.766	8.03E+01
3.767	8.07E+01
3.768	8.11E+01
3.769	8.15E+01
3.77	8.19E+01
3.771	8.23E+01
3.772	8.27E+01
3.773	8.30E+01
3.774	8.33E+01
3.775	8.37E+01
3.776	8.40E+01
3.777	8.43E+01
3.778	8.46E+01
3.779	8.48E+01
3.78	8.51E+01
3.781	8.54E+01
3.782	8.56E+01
3.783	8.59E+01
3.784	8.61E+01
3.785	8.63E+01
3.786	8.65E+01
3.787	8.68E+01
3.788	8.70E+01
3.789	8.72E+01
3.79	8.74E+01
3.791	8.76E+01
3.792	8.78E+01
3.793	8.80E+01
3.794	8.83E+01
3.795	8.85E+01
3.796	8.87E+01
3.797	8.90E+01
3.798	8.92E+01
3.799	8.95E+01
3.8	8.97E+01
3.801	9.00E+01
3.802	9.03E+01
3.803	9.06E+01
3.804	9.09E+01
3.805	9.12E+01
3.806	9.16E+01
3.807	9.19E+01
3.808	9.23E+01
3.809	9.27E+01
3.81	9.31E+01
3.811	9.35E+01
3.812	9.40E+01
3.813	9.45E+01
3.814	9.50E+01
3.815	9.55E+01
3.816	9.60E+01
3.817	9.66E+01
3.818	9.71E+01
3.819	9.77E+01
3.82	9.83E+01
3.821	9.90E+01
3.822	9.96E+01
3.823	1.00E+02
3.824	1.01E+02
3.825	1.02E+02
3.826	1.02E+02
3.827	1.03E+02
3.828	1.04E+02
3.829	1.05E+02
3.83	1.06E+02
3.831	1.06E+02
3.832	1.07E+02
3.833	1.08E+02
3.834	1.09E+02
3.835	1.10E+02
3.836	1.11E+02
3.837	1.11E+02
3.838	1.12E+02
3.839	1.13E+02
3.84	1.14E+02
3.841	1.15E+02
3.842	1.16E+02
3.843	1.16E+02
3.844	1.17E+02
3.845	1.18E+02
3.846	1.19E+02
3.847	1.19E+02
3.848	1.20E+02
3.849	1.21E+02
3.85	1.21E+02
3.851	1.22E+02
3.852	1.22E+02
3.853	1.23E+02
3.854	1.23E+02
3.855	1.24E+02
3.856	1.24E+02
3.857	1.24E+02
3.858	1.25E+02
3.859	1.25E+02
3.86	1.25E+02
3.861	1.25E+02
3.862	1.25E+02
3.863	1.25E+02
3.864	1.25E+02
3.865	1.25E+02
3.866	1.24E+02
3.867	1.24E+02
3.868	1.24E+02
3.869	1.23E+02
3.87	1.23E+02
3.871	1.22E+02
3.872	1.22E+02
3.873	1.21E+02
3.874	1.21E+02
3.875	1.20E+02
3.876	1.19E+02
3.877	1.19E+02
3.878	1.18E+02
3.879	1.17E+02
3.88	1.16E+02
3.881	1.16E+02
3.882	1.15E+02
3.883	1.14E+02
3.884	1.13E+02
3.885	1.12E+02
3.886	1.11E+02
3.887	1.10E+02
3.888	1.10E+02
3.889	1.09E+02
3.89	1.08E+02
3.891	1.07E+02
3.892	1.06E+02
3.893	1.05E+02
3.894	1.04E+02
3.895	1.03E+02
3.896	1.03E+02
3.897	1.02E+02
3.898	1.01E+02
3.899	1.00E+02
3.9	9.94E+01
3.901	9.86E+01
3.902	9.79E+01
3.903	9.71E+01
3.904	9.64E+01
3.905	9.57E+01
3.906	9.50E+01
3.907	9.44E+01
3.908	9.37E+01
3.909	9.31E+01
3.91	9.25E+01
3.911	9.19E+01
3.912	9.14E+01
3.913	9.08E+01
3.914	9.03E+01
3.915	8.98E+01
3.916	8.93E+01
3.917	8.89E+01
3.918	8.84E+01
3.919	8.80E+01
3.92	8.76E+01
3.921	8.72E+01
3.922	8.68E+01
3.923	8.65E+01
3.924	8.61E+01
3.925	8.58E+01
3.926	8.55E+01
3.927	8.53E+01
3.928	8.50E+01
3.929	8.47E+01
3.93	8.45E+01
3.931	8.43E+01
3.932	8.41E+01
3.933	8.39E+01
3.934	8.38E+01
3.935	8.36E+01
3.936	8.35E+01
3.937	8.34E+01
3.938	8.33E+01
3.939	8.32E+01
3.94	8.31E+01
3.941	8.31E+01
3.942	8.30E+01
3.943	8.30E+01
3.944	8.30E+01
3.945	8.30E+01
3.946	8.30E+01
3.947	8.30E+01
3.948	8.30E+01
3.949	8.31E+01
3.95	8.31E+01
3.951	8.32E+01
3.952	8.33E+01
3.953	8.34E+01
3.954	8.35E+01
3.955	8.36E+01
3.956	8.37E+01
3.957	8.39E+01
3.958	8.40E+01
3.959	8.42E+01
3.96	8.43E+01
3.961	8.45E+01
3.962	8.47E+01
3.963	8.49E+01
3.964	8.51E+01
3.965	8.53E+01
3.966	8.55E+01
3.967	8.58E+01
3.968	8.60E+01
3.969	8.62E+01
3.97	8.65E+01
3.971	8.68E+01
3.972	8.70E+01
3.973	8.73E+01
3.974	8.76E+01
3.975	8.79E+01
3.976	8.82E+01
3.977	8.85E+01
3.978	8.88E+01
3.979	8.91E+01
3.98	8.94E+01
3.981	8.97E+01
3.982	9.01E+01
3.983	9.04E+01
3.984	9.07E+01
3.985	9.11E+01
3.986	9.14E+01
3.987	9.18E+01
3.988	9.22E+01
3.989	9.25E+01
3.99	9.29E+01
3.991	9.33E+01
3.992	9.36E+01
3.993	9.40E+01
3.994	9.44E+01
3.995	9.47E+01
3.996	9.51E+01
3.997	9.55E+01
3.998	9.59E+01
3.999	9.63E+01
4.000	9.67E+01
4.001	110
4.002	110
4.003	110
4.004	110
4.005	110
4.006	110
4.007	110
4.008	110
4.009	110
4.01	110
4.011	110
4.012	110
4.013	110
4.014	110
4.015	110
4.016	110
4.017	110
4.018	110
4.019	110
4.02	110
4.021	110
4.022	110
4.023	110
4.024	110
4.025	110
4.026	110
4.027	110
4.028	110
4.029	110
4.03	110
4.031	110
4.032	110
4.033	110
4.034	110
4.035	110
4.036	110
4.037	110
4.038	110
4.039	110
4.04	110
4.041	110
4.042	110
4.043	110
4.044	110
4.045	110
4.046	110
4.047	110
4.048	110
4.049	110
4.05	110
4.051	110
4.052	110
4.053	110
4.054	110
4.055	110
4.056	110
4.057	110
4.058	110
4.059	110
4.06	110
4.061	110
4.062	110
4.063	110
4.064	110
4.065	110
4.066	110
4.067	110
4.068	110
4.069	110
4.07	110
4.071	110
4.072	110
4.073	110
4.074	110
4.075	110
4.076	110
4.077	110
4.078	110
4.079	110
4.08	110
4.081	110
4.082	110
4.083	110
4.084	110
4.085	110
4.086	110
4.087	110
4.088	110
4.089	110
4.09	110
4.091	110
4.092	110
4.093	110
4.094	110
4.095	110
4.096	110
4.097	110
4.098	110
4.099	110
4.1	110
4.101	110
4.102	110
4.103	110
4.104	110
4.105	110
4.106	110
4.107	110
4.108	110
4.109	110
4.11	110
4.111	110
4.112	110
4.113	110
4.114	110
4.115	110
4.116	110
4.117	110
4.118	110
4.119	110
4.12	110
4.121	110
4.122	110
4.123	110
4.124	110
4.125	110
4.126	110
4.127	110
4.128	110
4.129	110
4.13	110
4.131	110
4.132	110
4.133	110
4.134	110
4.135	110
4.136	110
4.137	110
4.138	110
4.139	110
4.14	110
4.141	110
4.142	110
4.143	110
4.144	110
4.145	110
4.146	110
4.147	110
4.148	110
4.149	110
4.15	110
4.151	110
4.152	110
4.153	110
4.154	110
4.155	110
4.156	110
4.157	110
4.158	110
4.159	110
4.16	110
4.161	110
4.162	110
4.163	110
4.164	110
4.165	110
4.166	110
4.167	110
4.168	110
4.169	110
4.17	110
4.171	110
4.172	110
4.173	110
4.174	110
4.175	110
4.176	110
4.177	110
4.178	110
4.179	110
4.18	110
4.181	110
4.182	110
4.183	110
4.184	110
4.185	110
4.186	110
4.187	110
4.188	110
4.189	110
4.19	110
4.191	110
4.192	110
4.193	110
4.194	110
4.195	110
4.196	110
4.197	110
4.198	110
4.199	110
4.2	110
4.201	110
4.202	110
4.203	110
4.204	110
4.205	110
4.206	110
4.207	110
4.208	110
4.209	110
4.21	110
4.211	110
4.212	110
4.213	110
4.214	110
4.215	110
4.216	110
4.217	110
4.218	110
4.219	110
4.22	110
4.221	110
4.222	110
4.223	110
4.224	110
4.225	110
4.226	110
4.227	110
4.228	110
4.229	110
4.23	110
4.231	110
4.232	110
4.233	110
4.234	110
4.235	110
4.236	110
4.237	110
4.238	110
4.239	110
4.24	110
4.241	110
4.242	110
4.243	110
4.244	110
4.245	110
4.246	110
4.247	110
4.248	110
4.249	110
4.25	110
4.251	110
4.252	110
4.253	110
4.254	110
4.255	110
4.256	110
4.257	110
4.258	110
4.259	110
4.26	110
4.261	110
4.262	110
4.263	110
4.264	110
4.265	110
4.266	110
4.267	110
4.268	110
4.269	110
4.27	110
4.271	110
4.272	110
4.273	110
4.274	110
4.275	110
4.276	110
4.277	110
4.278	110
4.279	110
4.28	110
4.281	110
4.282	110
4.283	110
4.284	110
4.285	110
4.286	110
4.287	110
4.288	110
4.289	110
4.29	110
4.291	110
4.292	110
4.293	110
4.294	110
4.295	110
4.296	110
4.297	110
4.298	110
4.299	110
4.3	110
4.301	110
4.302	110
4.303	110
4.304	110
4.305	110
4.306	110
4.307	110
4.308	110
4.309	110
4.31	110
4.311	110
4.312	110
4.313	110
4.314	110
4.315	110
4.316	110
4.317	110
4.318	110
4.319	110
4.32	110
4.321	110
4.322	110
4.323	110
4.324	110
4.325	110
4.326	110
4.327	110
4.328	110
4.329	110
4.33	110
4.331	110
4.332	110
4.333	110
4.334	110
4.335	110
4.336	110
4.337	110
4.338	110
4.339	110
4.34	110
4.341	110
4.342	110
4.343	110
4.344	110
4.345	110
4.346	110
4.347	110
4.348	110
4.349	110
4.35	110
4.351	110
4.352	110
4.353	110
4.354	110
4.355	110
4.356	110
4.357	110
4.358	110
4.359	110
4.36	110
4.361	110
4.362	110
4.363	110
4.364	110
4.365	110
4.366	110
4.367	110
4.368	110
4.369	110
4.37	110
4.371	110
4.372	110
4.373	110
4.374	110
4.375	110
4.376	110
4.377	110
4.378	110
4.379	110
4.38	110
4.381	110
4.382	110
4.383	110
4.384	110
4.385	110
4.386	110
4.387	110
4.388	110
4.389	110
4.39	110
4.391	110
4.392	110
4.393	110
4.394	110
4.395	110
4.396	110
4.397	110
4.398	110
4.399	110
4.4	110
4.401	110
4.402	110
4.403	110
4.404	110
4.405	110
4.406	110
4.407	110
4.408	110
4.409	110
4.41	110
4.411	110
4.412	110
4.413	110
4.414	110
4.415	110
4.416	110
4.417	110
4.418	110
4.419	110
4.42	110
4.421	110
4.422	110
4.423	110
4.424	110
4.425	110
4.426	110
4.427	110
4.428	110
4.429	110
4.43	110
4.431	110
4.432	110
4.433	110
4.434	110
4.435	110
4.436	110
4.437	110
4.438	110
4.439	110
4.44	110
4.441	110
4.442	110
4.443	110
4.444	110
4.445	110
4.446	110
4.447	110
4.448	110
4.449	110
4.45	110
4.451	110
4.452	110
4.453	110
4.454	110
4.455	110
4.456	110
4.457	110
4.458	110
4.459	110
4.46	110
4.461	110
4.462	110
4.463	110
4.464	110
4.465	110
4.466	110
4.467	110
4.468	110
4.469	110
4.47	110
4.471	110
4.472	110
4.473	110
4.474	110
4.475	110
4.476	110
4.477	110
4.478	110
4.479	110
4.48	110
4.481	110
4.482	110
4.483	110
4.484	110
4.485	110
4.486	110
4.487	110
4.488	110
4.489	110
4.49	110
4.491	110
4.492	110
4.493	110
4.494	110
4.495	110
4.496	110
4.497	110
4.498	110
4.499	110
4.5	110
4.501	110
4.502	110
4.503	110
4.504	110
4.505	110
4.506	110
4.507	110
4.508	110
4.509	110
4.51	110
4.511	110
4.512	110
4.513	110
4.514	110
4.515	110
4.516	110
4.517	110
4.518	110
4.519	110
4.52	110
4.521	110
4.522	110
4.523	110
4.524	110
4.525	110
4.526	110
4.527	110
4.528	110
4.529	110
4.53	110
4.531	110
4.532	110
4.533	110
4.534	110
4.535	110
4.536	110
4.537	110
4.538	110
4.539	110
4.54	110
4.541	110
4.542	110
4.543	110
4.544	110
4.545	110
4.546	110
4.547	110
4.548	110
4.549	110
4.55	110
4.551	110
4.552	110
4.553	110
4.554	110
4.555	110
4.556	110
4.557	110
4.558	110
4.559	110
4.56	110
4.561	110
4.562	110
4.563	110
4.564	110
4.565	110
4.566	110
4.567	110
4.568	110
4.569	110
4.57	110
4.571	110
4.572	110
4.573	110
4.574	110
4.575	110
4.576	110
4.577	110
4.578	110
4.579	110
4.58	110
4.581	110
4.582	110
4.583	110
4.584	110
4.585	110
4.586	110
4.587	110
4.588	110
4.589	110
4.59	110
4.591	110
4.592	110
4.593	110
4.594	110
4.595	110
4.596	110
4.597	110
4.598	110
4.599	110
4.6	110
4.601	110
4.602	110
4.603	110
4.604	110
4.605	110
4.606	110
4.607	110
4.608	110
4.609	110
4.61	110
4.611	110
4.612	110
4.613	110
4.614	110
4.615	110
4.616	110
4.617	110
4.618	110
4.619	110
4.62	110
4.621	110
4.622	110
4.623	110
4.624	110
4.625	110
4.626	110
4.627	110
4.628	110
4.629	110
4.63	110
4.631	110
4.632	110
4.633	110
4.634	110
4.635	110
4.636	110
4.637	110
4.638	110
4.639	110
4.64	110
4.641	110
4.642	110
4.643	110
4.644	110
4.645	110
4.646	110
4.647	110
4.648	110
4.649	110
4.65	110
4.651	110
4.652	110
4.653	110
4.654	110
4.655	110
4.656	110
4.657	110
4.658	110
4.659	110
4.66	110
4.661	110
4.662	110
4.663	110
4.664	110
4.665	110
4.666	110
4.667	110
4.668	110
4.669	110
4.67	110
4.671	110
4.672	110
4.673	110
4.674	110
4.675	110
4.676	110
4.677	110
4.678	110
4.679	110
4.68	110
4.681	110
4.682	110
4.683	110
4.684	110
4.685	110
4.686	110
4.687	110
4.688	110
4.689	110
4.69	110
4.691	110
4.692	110
4.693	110
4.694	110
4.695	110
4.696	110
4.697	110
4.698	110
4.699	110
4.7	110
4.701	110
4.702	110
4.703	110
4.704	110
4.705	110
4.706	110
4.707	110
4.708	110
4.709	110
4.71	110
4.711	110
4.712	110
4.713	110
4.714	110
4.715	110
4.716	110
4.717	110
4.718	110
4.719	110
4.72	110
4.721	110
4.722	110
4.723	110
4.724	110
4.725	110
4.726	110
4.727	110
4.728	110
4.729	110
4.73	110
4.731	110
4.732	110
4.733	110
4.734	110
4.735	110
4.736	110
4.737	110
4.738	110
4.739	110
4.74	110
4.741	110
4.742	110
4.743	110
4.744	110
4.745	110
4.746	110
4.747	110
4.748	110
4.749	110
4.75	110
4.751	110
4.752	110
4.753	110
4.754	110
4.755	110
4.756	110
4.757	110
4.758	110
4.759	110
4.76	110
4.761	110
4.762	110
4.763	110
4.764	110
4.765	110
4.766	110
4.767	110
4.768	110
4.769	110
4.77	110
4.771	110
4.772	110
4.773	110
4.774	110
4.775	110
4.776	110
4.777	110
4.778	110
4.779	110
4.78	110
4.781	110
4.782	110
4.783	110
4.784	110
4.785	110
4.786	110
4.787	110
4.788	110
4.789	110
4.79	110
4.791	110
4.792	110
4.793	110
4.794	110
4.795	110
4.796	110
4.797	110
4.798	110
4.799	110
4.8	110
4.801	110
4.802	110
4.803	110
4.804	110
4.805	110
4.806	110
4.807	110
4.808	110
4.809	110
4.81	110
4.811	110
4.812	110
4.813	110
4.814	110
4.815	110
4.816	110
4.817	110
4.818	110
4.819	110
4.82	110
4.821	110
4.822	110
4.823	110
4.824	110
4.825	110
4.826	110
4.827	110
4.828	110
4.829	110
4.83	110
4.831	110
4.832	110
4.833	110
4.834	110
4.835	110
4.836	110
4.837	110
4.838	110
4.839	110
4.84	110
4.841	110
4.842	110
4.843	110
4.844	110
4.845	110
4.846	110
4.847	110
4.848	110
4.849	110
4.85	110
4.851	110
4.852	110
4.853	110
4.854	110
4.855	110
4.856	110
4.857	110
4.858	110
4.859	110
4.86	110
4.861	110
4.862	110
4.863	110
4.864	110
4.865	110
4.866	110
4.867	110
4.868	110
4.869	110
4.87	110
4.871	110
4.872	110
4.873	110
4.874	110
4.875	110
4.876	110
4.877	110
4.878	110
4.879	110
4.88	110
4.881	110
4.882	110
4.883	110
4.884	110
4.885	110
4.886	110
4.887	110
4.888	110
4.889	110
4.89	110
4.891	110
4.892	110
4.893	110
4.894	110
4.895	110
4.896	110
4.897	110
4.898	110
4.899	110
4.9	110
4.901	110
4.902	110
4.903	110
4.904	110
4.905	110
4.906	110
4.907	110
4.908	110
4.909	110
4.91	110
4.911	110
4.912	110
4.913	110
4.914	110
4.915	110
4.916	110
4.917	110
4.918	110
4.919	110
4.92	110
4.921	110
4.922	110
4.923	110
4.924	110
4.925	110
4.926	110
4.927	110
4.928	110
4.929	110
4.93	110
4.931	110
4.932	110
4.933	110
4.934	110
4.935	110
4.936	110
4.937	110
4.938	110
4.939	110
4.94	110
4.941	110
4.942	110
4.943	110
4.944	110
4.945	110
4.946	110
4.947	110
4.948	110
4.949	110
4.95	110
4.951	110
4.952	110
4.953	110
4.954	110
4.955	110
4.956	110
4.957	110
4.958	110
4.959	110
4.96	110
4.961	110
4.962	110
4.963	110
4.964	110
4.965	110
4.966	110
4.967	110
4.968	110
4.969	110
4.97	110
4.971	110
4.972	110
4.973	110
4.974	110
4.975	110
4.976	110
4.977	110
4.978	110
4.979	110
4.98	110
4.981	110
4.982	110
4.983	110
4.984	110
4.985	110
4.986	110
4.987	110
4.988	110
4.989	110
4.99	110
4.991	110
4.992	110
4.993	110
4.994	110
4.995	110
4.996	110
4.997	110
4.998	110
4.999	110
5	110
5.001	110
5.002	110
5.003	110
5.004	110
5.005	110
5.006	110
5.007	110
5.008	110
5.009	110
5.01	110
5.011	110
5.012	110
5.013	110
5.014	110
5.015	110
5.016	110
5.017	110
5.018	110
5.019	110
5.02	110
5.021	110
5.022	110
5.023	110
5.024	110
5.025	110
5.026	110
5.027	110
5.028	110
5.029	110
5.03	110
5.031	110
5.032	110
5.033	110
5.034	110
5.035	110
5.036	110
5.037	110
5.038	110
5.039	110
5.04	110
5.041	110
5.042	110
5.043	110
5.044	110
5.045	110
5.046	110
5.047	110
5.048	110
5.049	110
5.05	110
5.051	110
5.052	110
5.053	110
5.054	110
5.055	110
5.056	110
5.057	110
5.058	110
5.059	110
5.06	110
5.061	110
5.062	110
5.063	110
5.064	110
5.065	110
5.066	110
5.067	110
5.068	110
5.069	110
5.07	110
5.071	110
5.072	110
5.073	110
5.074	110
5.075	110
5.076	110
5.077	110
5.078	110
5.079	110
5.08	110
5.081	110
5.082	110
5.083	110
5.084	110
5.085	110
5.086	110
5.087	110
5.088	110
5.089	110
5.09	110
5.091	110
5.092	110
5.093	110
5.094	110
5.095	110
5.096	110
5.097	110
5.098	110
5.099	110
5.1	110
5.101	110
5.102	110
5.103	110
5.104	110
5.105	110
5.106	110
5.107	110
5.108	110
5.109	110
5.11	110
5.111	110
5.112	110
5.113	110
5.114	110
5.115	110
5.116	110
5.117	110
5.118	110
5.119	110
5.12	110
5.121	110
5.122	110
5.123	110
5.124	110
5.125	110
5.126	110
5.127	110
5.128	110
5.129	110
5.13	110
5.131	110
5.132	110
5.133	110
5.134	110
5.135	110
5.136	110
5.137	110
5.138	110
5.139	110
5.14	110
5.141	110
5.142	110
5.143	110
5.144	110
5.145	110
5.146	110
5.147	110
5.148	110
5.149	110
5.15	110
5.151	110
5.152	110
5.153	110
5.154	110
5.155	110
5.156	110
5.157	110
5.158	110
5.159	110
5.16	110
5.161	110
5.162	110
5.163	110
5.164	110
5.165	110
5.166	110
5.167	110
5.168	110
5.169	110
5.17	110
5.171	110
5.172	110
5.173	110
5.174	110
5.175	110
5.176	110
5.177	110
5.178	110
5.179	110
5.18	110
5.181	110
5.182	110
5.183	110
5.184	110
5.185	110
5.186	110
5.187	110
5.188	110
5.189	110
5.19	110
5.191	110
5.192	110
5.193	110
5.194	110
5.195	110
5.196	110
5.197	110
5.198	110
5.199	110
5.2	110
5.201	110
5.202	110
5.203	110
5.204	110
5.205	110
5.206	110
5.207	110
5.208	110
5.209	110
5.21	110
5.211	110
5.212	110
5.213	110
5.214	110
5.215	110
5.216	110
5.217	110
5.218	110
5.219	110
5.22	110
5.221	110
5.222	110
5.223	110
5.224	110
5.225	110
5.226	110
5.227	110
5.228	110
5.229	110
5.23	110
5.231	110
5.232	110
5.233	110
5.234	110
5.235	110
5.236	110
5.237	110
5.238	110
5.239	110
5.24	110
5.241	110
5.242	110
5.243	110
5.244	110
5.245	110
5.246	110
5.247	110
5.248	110
5.249	110
5.25	110
5.251	110
5.252	110
5.253	110
5.254	110
5.255	110
5.256	110
5.257	110
5.258	110
5.259	110
5.26	110
5.261	110
5.262	110
5.263	110
5.264	110
5.265	110
5.266	110
5.267	110
5.268	110
5.269	110
5.27	110
5.271	110
5.272	110
5.273	110
5.274	110
5.275	110
5.276	110
5.277	110
5.278	110
5.279	110
5.28	110
5.281	110
5.282	110
5.283	110
5.284	110
5.285	110
5.286	110
5.287	110
5.288	110
5.289	110
5.29	110
5.291	110
5.292	110
5.293	110
5.294	110
5.295	110
5.296	110
5.297	110
5.298	110
5.299	110
5.3	110
5.301	110
5.302	110
5.303	110
5.304	110
5.305	110
5.306	110
5.307	110
5.308	110
5.309	110
5.31	110
5.311	110
5.312	110
5.313	110
5.314	110
5.315	110
5.316	110
5.317	110
5.318	110
5.319	110
5.32	110
5.321	110
5.322	110
5.323	110
5.324	110
5.325	110
5.326	110
5.327	110
5.328	110
5.329	110
5.33	110
5.331	110
5.332	110
5.333	110
5.334	110
5.335	110
5.336	110
5.337	110
5.338	110
5.339	110
5.34	110
5.341	110
5.342	110
5.343	110
5.344	110
5.345	110
5.346	110
5.347	110
5.348	110
5.349	110
5.35	110
5.351	110
5.352	110
5.353	110
5.354	110
5.355	110
5.356	110
5.357	110
5.358	110
5.359	110
5.36	110
5.361	110
5.362	110
5.363	110
5.364	110
5.365	110
5.366	110
5.367	110
5.368	110
5.369	110
5.37	110
5.371	110
5.372	110
5.373	110
5.374	110
5.375	110
5.376	110
5.377	110
5.378	110
5.379	110
5.38	110
5.381	110
5.382	110
5.383	110
5.384	110
5.385	110
5.386	110
5.387	110
5.388	110
5.389	110
5.39	110
5.391	110
5.392	110
5.393	110
5.394	110
5.395	110
5.396	110
5.397	110
5.398	110
5.399	110
5.4	110
5.401	110
5.402	110
5.403	110
5.404	110
5.405	110
5.406	110
5.407	110
5.408	110
5.409	110
5.41	110
5.411	110
5.412	110
5.413	110
5.414	110
5.415	110
5.416	110
5.417	110
5.418	110
5.419	110
5.42	110
5.421	110
5.422	110
5.423	110
5.424	110
5.425	110
5.426	110
5.427	110
5.428	110
5.429	110
5.43	110
5.431	110
5.432	110
5.433	110
5.434	110
5.435	110
5.436	110
5.437	110
5.438	110
5.439	110
5.44	110
5.441	110
5.442	110
5.443	110
5.444	110
5.445	110
5.446	110
5.447	110
5.448	110
5.449	110
5.45	110
5.451	110
5.452	110
5.453	110
5.454	110
5.455	110
5.456	110
5.457	110
5.458	110
5.459	110
5.46	110
5.461	110
5.462	110
5.463	110
5.464	110
5.465	110
5.466	110
5.467	110
5.468	110
5.469	110
5.47	110
5.471	110
5.472	110
5.473	110
5.474	110
5.475	110
5.476	110
5.477	110
5.478	110
5.479	110
5.48	110
5.481	110
5.482	110
5.483	110
5.484	110
5.485	110
5.486	110
5.487	110
5.488	110
5.489	110
5.49	110
5.491	110
5.492	110
5.493	110
5.494	110
5.495	110
5.496	110
5.497	110
5.498	110
5.499	110
5.5	110
5.501	110
5.502	110
5.503	110
5.504	110
5.505	110
5.506	110
5.507	110
5.508	110
5.509	110
5.51	110
5.511	110
5.512	110
5.513	110
5.514	110
5.515	110
5.516	110
5.517	110
5.518	110
5.519	110
5.52	110
5.521	110
5.522	110
5.523	110
5.524	110
5.525	110
5.526	110
5.527	110
5.528	110
5.529	110
5.53	110
5.531	110
5.532	110
5.533	110
5.534	110
5.535	110
5.536	110
5.537	110
5.538	110
5.539	110
5.54	110
5.541	110
5.542	110
5.543	110
5.544	110
5.545	110
5.546	110
5.547	110
5.548	110
5.549	110
5.55	110
5.551	110
5.552	110
5.553	110
5.554	110
5.555	110
5.556	110
5.557	110
5.558	110
5.559	110
5.56	110
5.561	110
5.562	110
5.563	110
5.564	110
5.565	110
5.566	110
5.567	110
5.568	110
5.569	110
5.57	110
5.571	110
5.572	110
5.573	110
5.574	110
5.575	110
5.576	110
5.577	110
5.578	110
5.579	110
5.58	110
5.581	110
5.582	110
5.583	110
5.584	110
5.585	110
5.586	110
5.587	110
5.588	110
5.589	110
5.59	110
5.591	110
5.592	110
5.593	110
5.594	110
5.595	110
5.596	110
5.597	110
5.598	110
5.599	110
5.6	110
5.601	110
5.602	110
5.603	110
5.604	110
5.605	110
5.606	110
5.607	110
5.608	110
5.609	110
5.61	110
5.611	110
5.612	110
5.613	110
5.614	110
5.615	110
5.616	110
5.617	110
5.618	110
5.619	110
5.62	110
5.621	110
5.622	110
5.623	110
5.624	110
5.625	110
5.626	110
5.627	110
5.628	110
5.629	110
5.63	110
5.631	110
5.632	110
5.633	110
5.634	110
5.635	110
5.636	110
5.637	110
5.638	110
5.639	110
5.64	110
5.641	110
5.642	110
5.643	110
5.644	110
5.645	110
5.646	110
5.647	110
5.648	110
5.649	110
5.65	110
5.651	110
5.652	110
5.653	110
5.654	110
5.655	110
5.656	110
5.657	110
5.658	110
5.659	110
5.66	110
5.661	110
5.662	110
5.663	110
5.664	110
5.665	110
5.666	110
5.667	110
5.668	110
5.669	110
5.67	110
5.671	110
5.672	110
5.673	110
5.674	110
5.675	110
5.676	110
5.677	110
5.678	110
5.679	110
5.68	110
5.681	110
5.682	110
5.683	110
5.684	110
5.685	110
5.686	110
5.687	110
5.688	110
5.689	110
5.69	110
5.691	110
5.692	110
5.693	110
5.694	110
5.695	110
5.696	110
5.697	110
5.698	110
5.699	110
5.7	110
5.701	110
5.702	110
5.703	110
5.704	110
5.705	110
5.706	110
5.707	110
5.708	110
5.709	110
5.71	110
5.711	110
5.712	110
5.713	110
5.714	110
5.715	110
5.716	110
5.717	110
5.718	110
5.719	110
5.72	110
5.721	110
5.722	110
5.723	110
5.724	110
5.725	110
5.726	110
5.727	110
5.728	110
5.729	110
5.73	110
5.731	110
5.732	110
5.733	110
5.734	110
5.735	110
5.736	110
5.737	110
5.738	110
5.739	110
5.74	110
5.741	110
5.742	110
5.743	110
5.744	110
5.745	110
5.746	110
5.747	110
5.748	110
5.749	110
5.75	110
5.751	110
5.752	110
5.753	110
5.754	110
5.755	110
5.756	110
5.757	110
5.758	110
5.759	110
5.76	110
5.761	110
5.762	110
5.763	110
5.764	110
5.765	110
5.766	110
5.767	110
5.768	110
5.769	110
5.77	110
5.771	110
5.772	110
5.773	110
5.774	110
5.775	110
5.776	110
5.777	110
5.778	110
5.779	110
5.78	110
5.781	110
5.782	110
5.783	110
5.784	110
5.785	110
5.786	110
5.787	110
5.788	110
5.789	110
5.79	110
5.791	110
5.792	110
5.793	110
5.794	110
5.795	110
5.796	110
5.797	110
5.798	110
5.799	110
5.8	110
5.801	110
5.802	110
5.803	110
5.804	110
5.805	110
5.806	110
5.807	110
5.808	110
5.809	110
5.81	110
5.811	110
5.812	110
5.813	110
5.814	110
5.815	110
5.816	110
5.817	110
5.818	110
5.819	110
5.82	110
5.821	110
5.822	110
5.823	110
5.824	110
5.825	110
5.826	110
5.827	110
5.828	110
5.829	110
5.83	110
5.831	110
5.832	110
5.833	110
5.834	110
5.835	110
5.836	110
5.837	110
5.838	110
5.839	110
5.84	110
5.841	110
5.842	110
5.843	110
5.844	110
5.845	110
5.846	110
5.847	110
5.848	110
5.849	110
5.85	110
5.851	110
5.852	110
5.853	110
5.854	110
5.855	110
5.856	110
5.857	110
5.858	110
5.859	110
5.86	110
5.861	110
5.862	110
5.863	110
5.864	110
5.865	110
5.866	110
5.867	110
5.868	110
5.869	110
5.87	110
5.871	110
5.872	110
5.873	110
5.874	110
5.875	110
5.876	110
5.877	110
5.878	110
5.879	110
5.88	110
5.881	110
5.882	110
5.883	110
5.884	110
5.885	110
5.886	110
5.887	110
5.888	110
5.889	110
5.89	110
5.891	110
5.892	110
5.893	110
5.894	110
5.895	110
5.896	110
5.897	110
5.898	110
5.899	110
5.9	110
5.901	110
5.902	110
5.903	110
5.904	110
5.905	110
5.906	110
5.907	110
5.908	110
5.909	110
5.91	110
5.911	110
5.912	110
5.913	110
5.914	110
5.915	110
5.916	110
5.917	110
5.918	110
5.919	110
5.92	110
5.921	110
5.922	110
5.923	110
5.924	110
5.925	110
5.926	110
5.927	110
5.928	110
5.929	110
5.93	110
5.931	110
5.932	110
5.933	110
5.934	110
5.935	110
5.936	110
5.937	110
5.938	110
5.939	110
5.94	110
5.941	110
5.942	110
5.943	110
5.944	110
5.945	110
5.946	110
5.947	110
5.948	110
5.949	110
5.95	110
5.951	110
5.952	110
5.953	110
5.954	110
5.955	110
5.956	110
5.957	110
5.958	110
5.959	110
5.96	110
5.961	110
5.962	110
5.963	110
5.964	110
5.965	110
5.966	110
5.967	110
5.968	110
5.969	110
5.97	110
5.971	110
5.972	110
5.973	110
5.974	110
5.975	110
5.976	110
5.977	110
5.978	110
5.979	110
5.98	110
5.981	110
5.982	110
5.983	110
5.984	110
5.985	110
5.986	110
5.987	110
5.988	110
5.989	110
5.99	110
5.991	110
5.992	110
5.993	110
5.994	110
5.995	110
5.996	110
5.997	110
5.998	110
5.999	110
6	110
6.001	110
6.002	110
6.003	110
6.004	110
6.005	110
6.006	110
6.007	110
6.008	110
6.009	110
6.01	110
6.011	110
6.012	110
6.013	110
6.014	110
6.015	110
6.016	110
6.017	110
6.018	110
6.019	110
6.02	110
6.021	110
6.022	110
6.023	110
6.024	110
6.025	110
6.026	110
6.027	110
6.028	110
6.029	110
6.03	110
6.031	110
6.032	110
6.033	110
6.034	110
6.035	110
6.036	110
6.037	110
6.038	110
6.039	110
6.04	110
6.041	110
6.042	110
6.043	110
6.044	110
6.045	110
6.046	110
6.047	110
6.048	110
6.049	110
6.05	110
6.051	110
6.052	110
6.053	110
6.054	110
6.055	110
6.056	110
6.057	110
6.058	110
6.059	110
6.06	110
6.061	110
6.062	110
6.063	110
6.064	110
6.065	110
6.066	110
6.067	110
6.068	110
6.069	110
6.07	110
6.071	110
6.072	110
6.073	110
6.074	110
6.075	110
6.076	110
6.077	110
6.078	110
6.079	110
6.08	110
6.081	110
6.082	110
6.083	110
6.084	110
6.085	110
6.086	110
6.087	110
6.088	110
6.089	110
6.09	110
6.091	110
6.092	110
6.093	110
6.094	110
6.095	110
6.096	110
6.097	110
6.098	110
6.099	110
6.1	110
6.101	110
6.102	110
6.103	110
6.104	110
6.105	110
6.106	110
6.107	110
6.108	110
6.109	110
6.11	110
6.111	110
6.112	110
6.113	110
6.114	110
6.115	110
6.116	110
6.117	110
6.118	110
6.119	110
6.12	110
6.121	110
6.122	110
6.123	110
6.124	110
6.125	110
6.126	110
6.127	110
6.128	110
6.129	110
6.13	110
6.131	110
6.132	110
6.133	110
6.134	110
6.135	110
6.136	110
6.137	110
6.138	110
6.139	110
6.14	110
6.141	110
6.142	110
6.143	110
6.144	110
6.145	110
6.146	110
6.147	110
6.148	110
6.149	110
6.15	110
6.151	110
6.152	110
6.153	110
6.154	110
6.155	110
6.156	110
6.157	110
6.158	110
6.159	110
6.16	110
6.161	110
6.162	110
6.163	110
6.164	110
6.165	110
6.166	110
6.167	110
6.168	110
6.169	110
6.17	110
6.171	110
6.172	110
6.173	110
6.174	110
6.175	110
6.176	110
6.177	110
6.178	110
6.179	110
6.18	110
6.181	110
6.182	110
6.183	110
6.184	110
6.185	110
6.186	110
6.187	110
6.188	110
6.189	110
6.19	110
6.191	110
6.192	110
6.193	110
6.194	110
6.195	110
6.196	110
6.197	110
6.198	110
6.199	110
6.2	110
6.201	110
6.202	110
6.203	110
6.204	110
6.205	110
6.206	110
6.207	110
6.208	110
6.209	110
6.21	110
6.211	110
6.212	110
6.213	110
6.214	110
6.215	110
6.216	110
6.217	110
6.218	110
6.219	110
6.22	110
6.221	110
6.222	110
6.223	110
6.224	110
6.225	110
6.226	110
6.227	110
6.228	110
6.229	110
6.23	110
6.231	110
6.232	110
6.233	110
6.234	110
6.235	110
6.236	110
6.237	110
6.238	110
6.239	110
6.24	110
6.241	110
6.242	110
6.243	110
6.244	110
6.245	110
6.246	110
6.247	110
6.248	110
6.249	110
6.25	110
6.251	110
6.252	110
6.253	110
6.254	110
6.255	110
6.256	110
6.257	110
6.258	110
6.259	110
6.26	110
6.261	110
6.262	110
6.263	110
6.264	110
6.265	110
6.266	110
6.267	110
6.268	110
6.269	110
6.27	110
6.271	110
6.272	110
6.273	110
6.274	110
6.275	110
6.276	110
6.277	110
6.278	110
6.279	110
6.28	110
6.281	110
6.282	110
6.283	110
6.284	110
6.285	110
6.286	110
6.287	110
6.288	110
6.289	110
6.29	110
6.291	110
6.292	110
6.293	110
6.294	110
6.295	110
6.296	110
6.297	110
6.298	110
6.299	110
6.3	110
6.301	110
6.302	110
6.303	110
6.304	110
6.305	110
6.306	110
6.307	110
6.308	110
6.309	110
6.31	110
6.311	110
6.312	110
6.313	110
6.314	110
6.315	110
6.316	110
6.317	110
6.318	110
6.319	110
6.32	110
6.321	110
6.322	110
6.323	110
6.324	110
6.325	110
6.326	110
6.327	110
6.328	110
6.329	110
6.33	110
6.331	110
6.332	110
6.333	110
6.334	110
6.335	110
6.336	110
6.337	110
6.338	110
6.339	110
6.34	110
6.341	110
6.342	110
6.343	110
6.344	110
6.345	110
6.346	110
6.347	110
6.348	110
6.349	110
6.35	110
6.351	110
6.352	110
6.353	110
6.354	110
6.355	110
6.356	110
6.357	110
6.358	110
6.359	110
6.36	110
6.361	110
6.362	110
6.363	110
6.364	110
6.365	110
6.366	110
6.367	110
6.368	110
6.369	110
6.37	110
6.371	110
6.372	110
6.373	110
6.374	110
6.375	110
6.376	110
6.377	110
6.378	110
6.379	110
6.38	110
6.381	110
6.382	110
6.383	110
6.384	110
6.385	110
6.386	110
6.387	110
6.388	110
6.389	110
6.39	110
6.391	110
6.392	110
6.393	110
6.394	110
6.395	110
6.396	110
6.397	110
6.398	110
6.399	110
6.4	110
6.401	110
6.402	110
6.403	110
6.404	110
6.405	110
6.406	110
6.407	110
6.408	110
6.409	110
6.41	110
6.411	110
6.412	110
6.413	110
6.414	110
6.415	110
6.416	110
6.417	110
6.418	110
6.419	110
6.42	110
6.421	110
6.422	110
6.423	110
6.424	110
6.425	110
6.426	110
6.427	110
6.428	110
6.429	110
6.43	110
6.431	110
6.432	110
6.433	110
6.434	110
6.435	110
6.436	110
6.437	110
6.438	110
6.439	110
6.44	110
6.441	110
6.442	110
6.443	110
6.444	110
6.445	110
6.446	110
6.447	110
6.448	110
6.449	110
6.45	110
6.451	110
6.452	110
6.453	110
6.454	110
6.455	110
6.456	110
6.457	110
6.458	110
6.459	110
6.46	110
6.461	110
6.462	110
6.463	110
6.464	110
6.465	110
6.466	110
6.467	110
6.468	110
6.469	110
6.47	110
6.471	110
6.472	110
6.473	110
6.474	110
6.475	110
6.476	110
6.477	110
6.478	110
6.479	110
6.48	110
6.481	110
6.482	110
6.483	110
6.484	110
6.485	110
6.486	110
6.487	110
6.488	110
6.489	110
6.49	110
6.491	110
6.492	110
6.493	110
6.494	110
6.495	110
6.496	110
6.497	110
6.498	110
6.499	110
6.5	110
6.501	110
6.502	110
6.503	110
6.504	110
6.505	110
6.506	110
6.507	110
6.508	110
6.509	110
6.51	110
6.511	110
6.512	110
6.513	110
6.514	110
6.515	110
6.516	110
6.517	110
6.518	110
6.519	110
6.52	110
6.521	110
6.522	110
6.523	110
6.524	110
6.525	110
6.526	110
6.527	110
6.528	110
6.529	110
6.53	110
6.531	110
6.532	110
6.533	110
6.534	110
6.535	110
6.536	110
6.537	110
6.538	110
6.539	110
6.54	110
6.541	110
6.542	110
6.543	110
6.544	110
6.545	110
6.546	110
6.547	110
6.548	110
6.549	110
6.55	110
6.551	110
6.552	110
6.553	110
6.554	110
6.555	110
6.556	110
6.557	110
6.558	110
6.559	110
6.56	110
6.561	110
6.562	110
6.563	110
6.564	110
6.565	110
6.566	110
6.567	110
6.568	110
6.569	110
6.57	110
6.571	110
6.572	110
6.573	110
6.574	110
6.575	110
6.576	110
6.577	110
6.578	110
6.579	110
6.58	110
6.581	110
6.582	110
6.583	110
6.584	110
6.585	110
6.586	110
6.587	110
6.588	110
6.589	110
6.59	110
6.591	110
6.592	110
6.593	110
6.594	110
6.595	110
6.596	110
6.597	110
6.598	110
6.599	110
6.6	110
6.601	110
6.602	110
6.603	110
6.604	110
6.605	110
6.606	110
6.607	110
6.608	110
6.609	110
6.61	110
6.611	110
6.612	110
6.613	110
6.614	110
6.615	110
6.616	110
6.617	110
6.618	110
6.619	110
6.62	110
6.621	110
6.622	110
6.623	110
6.624	110
6.625	110
6.626	110
6.627	110
6.628	110
6.629	110
6.63	110
6.631	110
6.632	110
6.633	110
6.634	110
6.635	110
6.636	110
6.637	110
6.638	110
6.639	110
6.64	110
6.641	110
6.642	110
6.643	110
6.644	110
6.645	110
6.646	110
6.647	110
6.648	110
6.649	110
6.65	110
6.651	110
6.652	110
6.653	110
6.654	110
6.655	110
6.656	110
6.657	110
6.658	110
6.659	110
6.66	110
6.661	110
6.662	110
6.663	110
6.664	110
6.665	110
6.666	110
6.667	110
6.668	110
6.669	110
6.67	110
6.671	110
6.672	110
6.673	110
6.674	110
6.675	110
6.676	110
6.677	110
6.678	110
6.679	110
6.68	110
6.681	110
6.682	110
6.683	110
6.684	110
6.685	110
6.686	110
6.687	110
6.688	110
6.689	110
6.69	110
6.691	110
6.692	110
6.693	110
6.694	110
6.695	110
6.696	110
6.697	110
6.698	110
6.699	110
6.7	110
6.701	110
6.702	110
6.703	110
6.704	110
6.705	110
6.706	110
6.707	110
6.708	110
6.709	110
6.71	110
6.711	110
6.712	110
6.713	110
6.714	110
6.715	110
6.716	110
6.717	110
6.718	110
6.719	110
6.72	110
6.721	110
6.722	110
6.723	110
6.724	110
6.725	110
6.726	110
6.727	110
6.728	110
6.729	110
6.73	110
6.731	110
6.732	110
6.733	110
6.734	110
6.735	110
6.736	110
6.737	110
6.738	110
6.739	110
6.74	110
6.741	110
6.742	110
6.743	110
6.744	110
6.745	110
6.746	110
6.747	110
6.748	110
6.749	110
6.75	110
6.751	110
6.752	110
6.753	110
6.754	110
6.755	110
6.756	110
6.757	110
6.758	110
6.759	110
6.76	110
6.761	110
6.762	110
6.763	110
6.764	110
6.765	110
6.766	110
6.767	110
6.768	110
6.769	110
6.77	110
6.771	110
6.772	110
6.773	110
6.774	110
6.775	110
6.776	110
6.777	110
6.778	110
6.779	110
6.78	110
6.781	110
6.782	110
6.783	110
6.784	110
6.785	110
6.786	110
6.787	110
6.788	110
6.789	110
6.79	110
6.791	110
6.792	110
6.793	110
6.794	110
6.795	110
6.796	110
6.797	110
6.798	110
6.799	110
6.8	110
6.801	110
6.802	110
6.803	110
6.804	110
6.805	110
6.806	110
6.807	110
6.808	110
6.809	110
6.81	110
6.811	110
6.812	110
6.813	110
6.814	110
6.815	110
6.816	110
6.817	110
6.818	110
6.819	110
6.82	110
6.821	110
6.822	110
6.823	110
6.824	110
6.825	110
6.826	110
6.827	110
6.828	110
6.829	110
6.83	110
6.831	110
6.832	110
6.833	110
6.834	110
6.835	110
6.836	110
6.837	110
6.838	110
6.839	110
6.84	110
6.841	110
6.842	110
6.843	110
6.844	110
6.845	110
6.846	110
6.847	110
6.848	110
6.849	110
6.85	110
6.851	110
6.852	110
6.853	110
6.854	110
6.855	110
6.856	110
6.857	110
6.858	110
6.859	110
6.86	110
6.861	110
6.862	110
6.863	110
6.864	110
6.865	110
6.866	110
6.867	110
6.868	110
6.869	110
6.87	110
6.871	110
6.872	110
6.873	110
6.874	110
6.875	110
6.876	110
6.877	110
6.878	110
6.879	110
6.88	110
6.881	110
6.882	110
6.883	110
6.884	110
6.885	110
6.886	110
6.887	110
6.888	110
6.889	110
6.89	110
6.891	110
6.892	110
6.893	110
6.894	110
6.895	110
6.896	110
6.897	110
6.898	110
6.899	110
6.9	110
6.901	110
6.902	110
6.903	110
6.904	110
6.905	110
6.906	110
6.907	110
6.908	110
6.909	110
6.91	110
6.911	110
6.912	110
6.913	110
6.914	110
6.915	110
6.916	110
6.917	110
6.918	110
6.919	110
6.92	110
6.921	110
6.922	110
6.923	110
6.924	110
6.925	110
6.926	110
6.927	110
6.928	110
6.929	110
6.93	110
6.931	110
6.932	110
6.933	110
6.934	110
6.935	110
6.936	110
6.937	110
6.938	110
6.939	110
6.94	110
6.941	110
6.942	110
6.943	110
6.944	110
6.945	110
6.946	110
6.947	110
6.948	110
6.949	110
6.95	110
6.951	110
6.952	110
6.953	110
6.954	110
6.955	110
6.956	110
6.957	110
6.958	110
6.959	110
6.96	110
6.961	110
6.962	110
6.963	110
6.964	110
6.965	110
6.966	110
6.967	110
6.968	110
6.969	110
6.97	110
6.971	110
6.972	110
6.973	110
6.974	110
6.975	110
6.976	110
6.977	110
6.978	110
6.979	110
6.98	110
6.981	110
6.982	110
6.983	110
6.984	110
6.985	110
6.986	110
6.987	110
6.988	110
6.989	110
6.99	110
6.991	110
6.992	110
6.993	110
6.994	110
6.995	110
6.996	110
6.997	110
6.998	110
6.999	110
7	110
7.001	110
7.002	110
7.003	110
7.004	110
7.005	110
7.006	110
7.007	110
7.008	110
7.009	110
7.01	110
7.011	110
7.012	110
7.013	110
7.014	110
7.015	110
7.016	110
7.017	110
7.018	110
7.019	110
7.02	110
7.021	110
7.022	110
7.023	110
7.024	110
7.025	110
7.026	110
7.027	110
7.028	110
7.029	110
7.03	110
7.031	110
7.032	110
7.033	110
7.034	110
7.035	110
7.036	110
7.037	110
7.038	110
7.039	110
7.04	110
7.041	110
7.042	110
7.043	110
7.044	110
7.045	110
7.046	110
7.047	110
7.048	110
7.049	110
7.05	110
7.051	110
7.052	110
7.053	110
7.054	110
7.055	110
7.056	110
7.057	110
7.058	110
7.059	110
7.06	110
7.061	110
7.062	110
7.063	110
7.064	110
7.065	110
7.066	110
7.067	110
7.068	110
7.069	110
7.07	110
7.071	110
7.072	110
7.073	110
7.074	110
7.075	110
7.076	110
7.077	110
7.078	110
7.079	110
7.08	110
7.081	110
7.082	110
7.083	110
7.084	110
7.085	110
7.086	110
7.087	110
7.088	110
7.089	110
7.09	110
7.091	110
7.092	110
7.093	110
7.094	110
7.095	110
7.096	110
7.097	110
7.098	110
7.099	110
7.1	110
7.101	110
7.102	110
7.103	110
7.104	110
7.105	110
7.106	110
7.107	110
7.108	110
7.109	110
7.11	110
7.111	110
7.112	110
7.113	110
7.114	110
7.115	110
7.116	110
7.117	110
7.118	110
7.119	110
7.12	110
7.121	110
7.122	110
7.123	110
7.124	110
7.125	110
7.126	110
7.127	110
7.128	110
7.129	110
7.13	110
7.131	110
7.132	110
7.133	110
7.134	110
7.135	110
7.136	110
7.137	110
7.138	110
7.139	110
7.14	110
7.141	110
7.142	110
7.143	110
7.144	110
7.145	110
7.146	110
7.147	110
7.148	110
7.149	110
7.15	110
7.151	110
7.152	110
7.153	110
7.154	110
7.155	110
7.156	110
7.157	110
7.158	110
7.159	110
7.16	110
7.161	110
7.162	110
7.163	110
7.164	110
7.165	110
7.166	110
7.167	110
7.168	110
7.169	110
7.17	110
7.171	110
7.172	110
7.173	110
7.174	110
7.175	110
7.176	110
7.177	110
7.178	110
7.179	110
7.18	110
7.181	110
7.182	110
7.183	110
7.184	110
7.185	110
7.186	110
7.187	110
7.188	110
7.189	110
7.19	110
7.191	110
7.192	110
7.193	110
7.194	110
7.195	110
7.196	110
7.197	110
7.198	110
7.199	110
7.2	110
7.201	110
7.202	110
7.203	110
7.204	110
7.205	110
7.206	110
7.207	110
7.208	110
7.209	110
7.21	110
7.211	110
7.212	110
7.213	110
7.214	110
7.215	110
7.216	110
7.217	110
7.218	110
7.219	110
7.22	110
7.221	110
7.222	110
7.223	110
7.224	110
7.225	110
7.226	110
7.227	110
7.228	110
7.229	110
7.23	110
7.231	110
7.232	110
7.233	110
7.234	110
7.235	110
7.236	110
7.237	110
7.238	110
7.239	110
7.24	110
7.241	110
7.242	110
7.243	110
7.244	110
7.245	110
7.246	110
7.247	110
7.248	110
7.249	110
7.25	110
7.251	110
7.252	110
7.253	110
7.254	110
7.255	110
7.256	110
7.257	110
7.258	110
7.259	110
7.26	110
7.261	110
7.262	110
7.263	110
7.264	110
7.265	110
7.266	110
7.267	110
7.268	110
7.269	110
7.27	110
7.271	110
7.272	110
7.273	110
7.274	110
7.275	110
7.276	110
7.277	110
7.278	110
7.279	110
7.28	110
7.281	110
7.282	110
7.283	110
7.284	110
7.285	110
7.286	110
7.287	110
7.288	110
7.289	110
7.29	110
7.291	110
7.292	110
7.293	110
7.294	110
7.295	110
7.296	110
7.297	110
7.298	110
7.299	110
7.3	110
7.301	110
7.302	110
7.303	110
7.304	110
7.305	110
7.306	110
7.307	110
7.308	110
7.309	110
7.31	110
7.311	110
7.312	110
7.313	110
7.314	110
7.315	110
7.316	110
7.317	110
7.318	110
7.319	110
7.32	110
7.321	110
7.322	110
7.323	110
7.324	110
7.325	110
7.326	110
7.327	110
7.328	110
7.329	110
7.33	110
7.331	110
7.332	110
7.333	110
7.334	110
7.335	110
7.336	110
7.337	110
7.338	110
7.339	110
7.34	110
7.341	110
7.342	110
7.343	110
7.344	110
7.345	110
7.346	110
7.347	110
7.348	110
7.349	110
7.35	110
7.351	110
7.352	110
7.353	110
7.354	110
7.355	110
7.356	110
7.357	110
7.358	110
7.359	110
7.36	110
7.361	110
7.362	110
7.363	110
7.364	110
7.365	110
7.366	110
7.367	110
7.368	110
7.369	110
7.37	110
7.371	110
7.372	110
7.373	110
7.374	110
7.375	110
7.376	110
7.377	110
7.378	110
7.379	110
7.38	110
7.381	110
7.382	110
7.383	110
7.384	110
7.385	110
7.386	110
7.387	110
7.388	110
7.389	110
7.39	110
7.391	110
7.392	110
7.393	110
7.394	110
7.395	110
7.396	110
7.397	110
7.398	110
7.399	110
7.4	110
7.401	110
7.402	110
7.403	110
7.404	110
7.405	110
7.406	110
7.407	110
7.408	110
7.409	110
7.41	110
7.411	110
7.412	110
7.413	110
7.414	110
7.415	110
7.416	110
7.417	110
7.418	110
7.419	110
7.42	110
7.421	110
7.422	110
7.423	110
7.424	110
7.425	110
7.426	110
7.427	110
7.428	110
7.429	110
7.43	110
7.431	110
7.432	110
7.433	110
7.434	110
7.435	110
7.436	110
7.437	110
7.438	110
7.439	110
7.44	110
7.441	110
7.442	110
7.443	110
7.444	110
7.445	110
7.446	110
7.447	110
7.448	110
7.449	110
7.45	110
7.451	110
7.452	110
7.453	110
7.454	110
7.455	110
7.456	110
7.457	110
7.458	110
7.459	110
7.46	110
7.461	110
7.462	110
7.463	110
7.464	110
7.465	110
7.466	110
7.467	110
7.468	110
7.469	110
7.47	110
7.471	110
7.472	110
7.473	110
7.474	110
7.475	110
7.476	110
7.477	110
7.478	110
7.479	110
7.48	110
7.481	110
7.482	110
7.483	110
7.484	110
7.485	110
7.486	110
7.487	110
7.488	110
7.489	110
7.49	110
7.491	110
7.492	110
7.493	110
7.494	110
7.495	110
7.496	110
7.497	110
7.498	110
7.499	110
7.5	110
7.501	110
7.502	110
7.503	110
7.504	110
7.505	110
7.506	110
7.507	110
7.508	110
7.509	110
7.51	110
7.511	110
7.512	110
7.513	110
7.514	110
7.515	110
7.516	110
7.517	110
7.518	110
7.519	110
7.52	110
7.521	110
7.522	110
7.523	110
7.524	110
7.525	110
7.526	110
7.527	110
7.528	110
7.529	110
7.53	110
7.531	110
7.532	110
7.533	110
7.534	110
7.535	110
7.536	110
7.537	110
7.538	110
7.539	110
7.54	110
7.541	110
7.542	110
7.543	110
7.544	110
7.545	110
7.546	110
7.547	110
7.548	110
7.549	110
7.55	110
7.551	110
7.552	110
7.553	110
7.554	110
7.555	110
7.556	110
7.557	110
7.558	110
7.559	110
7.56	110
7.561	110
7.562	110
7.563	110
7.564	110
7.565	110
7.566	110
7.567	110
7.568	110
7.569	110
7.57	110
7.571	110
7.572	110
7.573	110
7.574	110
7.575	110
7.576	110
7.577	110
7.578	110
7.579	110
7.58	110
7.581	110
7.582	110
7.583	110
7.584	110
7.585	110
7.586	110
7.587	110
7.588	110
7.589	110
7.59	110
7.591	110
7.592	110
7.593	110
7.594	110
7.595	110
7.596	110
7.597	110
7.598	110
7.599	110
7.6	110
7.601	110
7.602	110
7.603	110
7.604	110
7.605	110
7.606	110
7.607	110
7.608	110
7.609	110
7.61	110
7.611	110
7.612	110
7.613	110
7.614	110
7.615	110
7.616	110
7.617	110
7.618	110
7.619	110
7.62	110
7.621	110
7.622	110
7.623	110
7.624	110
7.625	110
7.626	110
7.627	110
7.628	110
7.629	110
7.63	110
7.631	110
7.632	110
7.633	110
7.634	110
7.635	110
7.636	110
7.637	110
7.638	110
7.639	110
7.64	110
7.641	110
7.642	110
7.643	110
7.644	110
7.645	110
7.646	110
7.647	110
7.648	110
7.649	110
7.65	110
7.651	110
7.652	110
7.653	110
7.654	110
7.655	110
7.656	110
7.657	110
7.658	110
7.659	110
7.66	110
7.661	110
7.662	110
7.663	110
7.664	110
7.665	110
7.666	110
7.667	110
7.668	110
7.669	110
7.67	110
7.671	110
7.672	110
7.673	110
7.674	110
7.675	110
7.676	110
7.677	110
7.678	110
7.679	110
7.68	110
7.681	110
7.682	110
7.683	110
7.684	110
7.685	110
7.686	110
7.687	110
7.688	110
7.689	110
7.69	110
7.691	110
7.692	110
7.693	110
7.694	110
7.695	110
7.696	110
7.697	110
7.698	110
7.699	110
7.7	110
7.701	110
7.702	110
7.703	110
7.704	110
7.705	110
7.706	110
7.707	110
7.708	110
7.709	110
7.71	110
7.711	110
7.712	110
7.713	110
7.714	110
7.715	110
7.716	110
7.717	110
7.718	110
7.719	110
7.72	110
7.721	110
7.722	110
7.723	110
7.724	110
7.725	110
7.726	110
7.727	110
7.728	110
7.729	110
7.73	110
7.731	110
7.732	110
7.733	110
7.734	110
7.735	110
7.736	110
7.737	110
7.738	110
7.739	110
7.74	110
7.741	110
7.742	110
7.743	110
7.744	110
7.745	110
7.746	110
7.747	110
7.748	110
7.749	110
7.75	110
7.751	110
7.752	110
7.753	110
7.754	110
7.755	110
7.756	110
7.757	110
7.758	110
7.759	110
7.76	110
7.761	110
7.762	110
7.763	110
7.764	110
7.765	110
7.766	110
7.767	110
7.768	110
7.769	110
7.77	110
7.771	110
7.772	110
7.773	110
7.774	110
7.775	110
7.776	110
7.777	110
7.778	110
7.779	110
7.78	110
7.781	110
7.782	110
7.783	110
7.784	110
7.785	110
7.786	110
7.787	110
7.788	110
7.789	110
7.79	110
7.791	110
7.792	110
7.793	110
7.794	110
7.795	110
7.796	110
7.797	110
7.798	110
7.799	110
7.8	110
7.801	110
7.802	110
7.803	110
7.804	110
7.805	110
7.806	110
7.807	110
7.808	110
7.809	110
7.81	110
7.811	110
7.812	110
7.813	110
7.814	110
7.815	110
7.816	110
7.817	110
7.818	110
7.819	110
7.82	110
7.821	110
7.822	110
7.823	110
7.824	110
7.825	110
7.826	110
7.827	110
7.828	110
7.829	110
7.83	110
7.831	110
7.832	110
7.833	110
7.834	110
7.835	110
7.836	110
7.837	110
7.838	110
7.839	110
7.84	110
7.841	110
7.842	110
7.843	110
7.844	110
7.845	110
7.846	110
7.847	110
7.848	110
7.849	110
7.85	110
7.851	110
7.852	110
7.853	110
7.854	110
7.855	110
7.856	110
7.857	110
7.858	110
7.859	110
7.86	110
7.861	110
7.862	110
7.863	110
7.864	110
7.865	110
7.866	110
7.867	110
7.868	110
7.869	110
7.87	110
7.871	110
7.872	110
7.873	110
7.874	110
7.875	110
7.876	110
7.877	110
7.878	110
7.879	110
7.88	110
7.881	110
7.882	110
7.883	110
7.884	110
7.885	110
7.886	110
7.887	110
7.888	110
7.889	110
7.89	110
7.891	110
7.892	110
7.893	110
7.894	110
7.895	110
7.896	110
7.897	110
7.898	110
7.899	110
7.9	110
7.901	110
7.902	110
7.903	110
7.904	110
7.905	110
7.906	110
7.907	110
7.908	110
7.909	110
7.91	110
7.911	110
7.912	110
7.913	110
7.914	110
7.915	110
7.916	110
7.917	110
7.918	110
7.919	110
7.92	110
7.921	110
7.922	110
7.923	110
7.924	110
7.925	110
7.926	110
7.927	110
7.928	110
7.929	110
7.93	110
7.931	110
7.932	110
7.933	110
7.934	110
7.935	110
7.936	110
7.937	110
7.938	110
7.939	110
7.94	110
7.941	110
7.942	110
7.943	110
7.944	110
7.945	110
7.946	110
7.947	110
7.948	110
7.949	110
7.95	110
7.951	110
7.952	110
7.953	110
7.954	110
7.955	110
7.956	110
7.957	110
7.958	110
7.959	110
7.96	110
7.961	110
7.962	110
7.963	110
7.964	110
7.965	110
7.966	110
7.967	110
7.968	110
7.969	110
7.97	110
7.971	110
7.972	110
7.973	110
7.974	110
7.975	110
7.976	110
7.977	110
7.978	110
7.979	110
7.98	110
7.981	110
7.982	110
7.983	110
7.984	110
7.985	110
7.986	110
7.987	110
7.988	110
7.989	110
7.99	110
7.991	110
7.992	110
7.993	110
7.994	110
7.995	110
7.996	110
7.997	110
7.998	110
7.999	110
8	110
8.001	110
8.002	110
8.003	110
8.004	110
8.005	110
8.006	110
8.007	110
8.008	110
8.009	110
8.01	110
8.011	110
8.012	110
8.013	110
8.014	110
8.015	110
8.016	110
8.017	110
8.018	110
8.019	110
8.02	110
8.021	110
8.022	110
8.023	110
8.024	110
8.025	110
8.026	110
8.027	110
8.028	110
8.029	110
8.03	110
8.031	110
8.032	110
8.033	110
8.034	110
8.035	110
8.036	110
8.037	110
8.038	110
8.039	110
8.04	110
8.041	110
8.042	110
8.043	110
8.044	110
8.045	110
8.046	110
8.047	110
8.048	110
8.049	110
8.05	110
8.051	110
8.052	110
8.053	110
8.054	110
8.055	110
8.056	110
8.057	110
8.058	110
8.059	110
8.06	110
8.061	110
8.062	110
8.063	110
8.064	110
8.065	110
8.066	110
8.067	110
8.068	110
8.069	110
8.07	110
8.071	110
8.072	110
8.073	110
8.074	110
8.075	110
8.076	110
8.077	110
8.078	110
8.079	110
8.08	110
8.081	110
8.082	110
8.083	110
8.084	110
8.085	110
8.086	110
8.087	110
8.088	110
8.089	110
8.09	110
8.091	110
8.092	110
8.093	110
8.094	110
8.095	110
8.096	110
8.097	110
8.098	110
8.099	110
8.1	110
8.101	110
8.102	110
8.103	110
8.104	110
8.105	110
8.106	110
8.107	110
8.108	110
8.109	110
8.11	110
8.111	110
8.112	110
8.113	110
8.114	110
8.115	110
8.116	110
8.117	110
8.118	110
8.119	110
8.12	110
8.121	110
8.122	110
8.123	110
8.124	110
8.125	110
8.126	110
8.127	110
8.128	110
8.129	110
8.13	110
8.131	110
8.132	110
8.133	110
8.134	110
8.135	110
8.136	110
8.137	110
8.138	110
8.139	110
8.14	110
8.141	110
8.142	110
8.143	110
8.144	110
8.145	110
8.146	110
8.147	110
8.148	110
8.149	110
8.15	110
8.151	110
8.152	110
8.153	110
8.154	110
8.155	110
8.156	110
8.157	110
8.158	110
8.159	110
8.16	110
8.161	110
8.162	110
8.163	110
8.164	110
8.165	110
8.166	110
8.167	110
8.168	110
8.169	110
8.17	110
8.171	110
8.172	110
8.173	110
8.174	110
8.175	110
8.176	110
8.177	110
8.178	110
8.179	110
8.18	110
8.181	110
8.182	110
8.183	110
8.184	110
8.185	110
8.186	110
8.187	110
8.188	110
8.189	110
8.19	110
8.191	110
8.192	110
8.193	110
8.194	110
8.195	110
8.196	110
8.197	110
8.198	110
8.199	110
8.2	110
8.201	110
8.202	110
8.203	110
8.204	110
8.205	110
8.206	110
8.207	110
8.208	110
8.209	110
8.21	110
8.211	110
8.212	110
8.213	110
8.214	110
8.215	110
8.216	110
8.217	110
8.218	110
8.219	110
8.22	110
8.221	110
8.222	110
8.223	110
8.224	110
8.225	110
8.226	110
8.227	110
8.228	110
8.229	110
8.23	110
8.231	110
8.232	110
8.233	110
8.234	110
8.235	110
8.236	110
8.237	110
8.238	110
8.239	110
8.24	110
8.241	110
8.242	110
8.243	110
8.244	110
8.245	110
8.246	110
8.247	110
8.248	110
8.249	110
8.25	110
8.251	110
8.252	110
8.253	110
8.254	110
8.255	110
8.256	110
8.257	110
8.258	110
8.259	110
8.26	110
8.261	110
8.262	110
8.263	110
8.264	110
8.265	110
8.266	110
8.267	110
8.268	110
8.269	110
8.27	110
8.271	110
8.272	110
8.273	110
8.274	110
8.275	110
8.276	110
8.277	110
8.278	110
8.279	110
8.28	110
8.281	110
8.282	110
8.283	110
8.284	110
8.285	110
8.286	110
8.287	110
8.288	110
8.289	110
8.29	110
8.291	110
8.292	110
8.293	110
8.294	110
8.295	110
8.296	110
8.297	110
8.298	110
8.299	110
8.3	110
8.301	110
8.302	110
8.303	110
8.304	110
8.305	110
8.306	110
8.307	110
8.308	110
8.309	110
8.31	110
8.311	110
8.312	110
8.313	110
8.314	110
8.315	110
8.316	110
8.317	110
8.318	110
8.319	110
8.32	110
8.321	110
8.322	110
8.323	110
8.324	110
8.325	110
8.326	110
8.327	110
8.328	110
8.329	110
8.33	110
8.331	110
8.332	110
8.333	110
8.334	110
8.335	110
8.336	110
8.337	110
8.338	110
8.339	110
8.34	110
8.341	110
8.342	110
8.343	110
8.344	110
8.345	110
8.346	110
8.347	110
8.348	110
8.349	110
8.35	110
8.351	110
8.352	110
8.353	110
8.354	110
8.355	110
8.356	110
8.357	110
8.358	110
8.359	110
8.36	110
8.361	110
8.362	110
8.363	110
8.364	110
8.365	110
8.366	110
8.367	110
8.368	110
8.369	110
8.37	110
8.371	110
8.372	110
8.373	110
8.374	110
8.375	110
8.376	110
8.377	110
8.378	110
8.379	110
8.38	110
8.381	110
8.382	110
8.383	110
8.384	110
8.385	110
8.386	110
8.387	110
8.388	110
8.389	110
8.39	110
8.391	110
8.392	110
8.393	110
8.394	110
8.395	110
8.396	110
8.397	110
8.398	110
8.399	110
8.4	110
8.401	110
8.402	110
8.403	110
8.404	110
8.405	110
8.406	110
8.407	110
8.408	110
8.409	110
8.41	110
8.411	110
8.412	110
8.413	110
8.414	110
8.415	110
8.416	110
8.417	110
8.418	110
8.419	110
8.42	110
8.421	110
8.422	110
8.423	110
8.424	110
8.425	110
8.426	110
8.427	110
8.428	110
8.429	110
8.43	110
8.431	110
8.432	110
8.433	110
8.434	110
8.435	110
8.436	110
8.437	110
8.438	110
8.439	110
8.44	110
8.441	110
8.442	110
8.443	110
8.444	110
8.445	110
8.446	110
8.447	110
8.448	110
8.449	110
8.45	110
8.451	110
8.452	110
8.453	110
8.454	110
8.455	110
8.456	110
8.457	110
8.458	110
8.459	110
8.46	110
8.461	110
8.462	110
8.463	110
8.464	110
8.465	110
8.466	110
8.467	110
8.468	110
8.469	110
8.47	110
8.471	110
8.472	110
8.473	110
8.474	110
8.475	110
8.476	110
8.477	110
8.478	110
8.479	110
8.48	110
8.481	110
8.482	110
8.483	110
8.484	110
8.485	110
8.486	110
8.487	110
8.488	110
8.489	110
8.49	110
8.491	110
8.492	110
8.493	110
8.494	110
8.495	110
8.496	110
8.497	110
8.498	110
8.499	110
8.5	110
8.501	110
8.502	110
8.503	110
8.504	110
8.505	110
8.506	110
8.507	110
8.508	110
8.509	110
8.51	110
8.511	110
8.512	110
8.513	110
8.514	110
8.515	110
8.516	110
8.517	110
8.518	110
8.519	110
8.52	110
8.521	110
8.522	110
8.523	110
8.524	110
8.525	110
8.526	110
8.527	110
8.528	110
8.529	110
8.53	110
8.531	110
8.532	110
8.533	110
8.534	110
8.535	110
8.536	110
8.537	110
8.538	110
8.539	110
8.54	110
8.541	110
8.542	110
8.543	110
8.544	110
8.545	110
8.546	110
8.547	110
8.548	110
8.549	110
8.55	110
8.551	110
8.552	110
8.553	110
8.554	110
8.555	110
8.556	110
8.557	110
8.558	110
8.559	110
8.56	110
8.561	110
8.562	110
8.563	110
8.564	110
8.565	110
8.566	110
8.567	110
8.568	110
8.569	110
8.57	110
8.571	110
8.572	110
8.573	110
8.574	110
8.575	110
8.576	110
8.577	110
8.578	110
8.579	110
8.58	110
8.581	110
8.582	110
8.583	110
8.584	110
8.585	110
8.586	110
8.587	110
8.588	110
8.589	110
8.59	110
8.591	110
8.592	110
8.593	110
8.594	110
8.595	110
8.596	110
8.597	110
8.598	110
8.599	110
8.6	110
8.601	110
8.602	110
8.603	110
8.604	110
8.605	110
8.606	110
8.607	110
8.608	110
8.609	110
8.61	110
8.611	110
8.612	110
8.613	110
8.614	110
8.615	110
8.616	110
8.617	110
8.618	110
8.619	110
8.62	110
8.621	110
8.622	110
8.623	110
8.624	110
8.625	110
8.626	110
8.627	110
8.628	110
8.629	110
8.63	110
8.631	110
8.632	110
8.633	110
8.634	110
8.635	110
8.636	110
8.637	110
8.638	110
8.639	110
8.64	110
8.641	110
8.642	110
8.643	110
8.644	110
8.645	110
8.646	110
8.647	110
8.648	110
8.649	110
8.65	110
8.651	110
8.652	110
8.653	110
8.654	110
8.655	110
8.656	110
8.657	110
8.658	110
8.659	110
8.66	110
8.661	110
8.662	110
8.663	110
8.664	110
8.665	110
8.666	110
8.667	110
8.668	110
8.669	110
8.67	110
8.671	110
8.672	110
8.673	110
8.674	110
8.675	110
8.676	110
8.677	110
8.678	110
8.679	110
8.68	110
8.681	110
8.682	110
8.683	110
8.684	110
8.685	110
8.686	110
8.687	110
8.688	110
8.689	110
8.69	110
8.691	110
8.692	110
8.693	110
8.694	110
8.695	110
8.696	110
8.697	110
8.698	110
8.699	110
8.7	110
8.701	110
8.702	110
8.703	110
8.704	110
8.705	110
8.706	110
8.707	110
8.708	110
8.709	110
8.71	110
8.711	110
8.712	110
8.713	110
8.714	110
8.715	110
8.716	110
8.717	110
8.718	110
8.719	110
8.72	110
8.721	110
8.722	110
8.723	110
8.724	110
8.725	110
8.726	110
8.727	110
8.728	110
8.729	110
8.73	110
8.731	110
8.732	110
8.733	110
8.734	110
8.735	110
8.736	110
8.737	110
8.738	110
8.739	110
8.74	110
8.741	110
8.742	110
8.743	110
8.744	110
8.745	110
8.746	110
8.747	110
8.748	110
8.749	110
8.75	110
8.751	110
8.752	110
8.753	110
8.754	110
8.755	110
8.756	110
8.757	110
8.758	110
8.759	110
8.76	110
8.761	110
8.762	110
8.763	110
8.764	110
8.765	110
8.766	110
8.767	110
8.768	110
8.769	110
8.77	110
8.771	110
8.772	110
8.773	110
8.774	110
8.775	110
8.776	110
8.777	110
8.778	110
8.779	110
8.78	110
8.781	110
8.782	110
8.783	110
8.784	110
8.785	110
8.786	110
8.787	110
8.788	110
8.789	110
8.79	110
8.791	110
8.792	110
8.793	110
8.794	110
8.795	110
8.796	110
8.797	110
8.798	110
8.799	110
8.8	110
8.801	110
8.802	110
8.803	110
8.804	110
8.805	110
8.806	110
8.807	110
8.808	110
8.809	110
8.81	110
8.811	110
8.812	110
8.813	110
8.814	110
8.815	110
8.816	110
8.817	110
8.818	110
8.819	110
8.82	110
8.821	110
8.822	110
8.823	110
8.824	110
8.825	110
8.826	110
8.827	110
8.828	110
8.829	110
8.83	110
8.831	110
8.832	110
8.833	110
8.834	110
8.835	110
8.836	110
8.837	110
8.838	110
8.839	110
8.84	110
8.841	110
8.842	110
8.843	110
8.844	110
8.845	110
8.846	110
8.847	110
8.848	110
8.849	110
8.85	110
8.851	110
8.852	110
8.853	110
8.854	110
8.855	110
8.856	110
8.857	110
8.858	110
8.859	110
8.86	110
8.861	110
8.862	110
8.863	110
8.864	110
8.865	110
8.866	110
8.867	110
8.868	110
8.869	110
8.87	110
8.871	110
8.872	110
8.873	110
8.874	110
8.875	110
8.876	110
8.877	110
8.878	110
8.879	110
8.88	110
8.881	110
8.882	110
8.883	110
8.884	110
8.885	110
8.886	110
8.887	110
8.888	110
8.889	110
8.89	110
8.891	110
8.892	110
8.893	110
8.894	110
8.895	110
8.896	110
8.897	110
8.898	110
8.899	110
8.9	110
8.901	110
8.902	110
8.903	110
8.904	110
8.905	110
8.906	110
8.907	110
8.908	110
8.909	110
8.91	110
8.911	110
8.912	110
8.913	110
8.914	110
8.915	110
8.916	110
8.917	110
8.918	110
8.919	110
8.92	110
8.921	110
8.922	110
8.923	110
8.924	110
8.925	110
8.926	110
8.927	110
8.928	110
8.929	110
8.93	110
8.931	110
8.932	110
8.933	110
8.934	110
8.935	110
8.936	110
8.937	110
8.938	110
8.939	110
8.94	110
8.941	110
8.942	110
8.943	110
8.944	110
8.945	110
8.946	110
8.947	110
8.948	110
8.949	110
8.95	110
8.951	110
8.952	110
8.953	110
8.954	110
8.955	110
8.956	110
8.957	110
8.958	110
8.959	110
8.96	110
8.961	110
8.962	110
8.963	110
8.964	110
8.965	110
8.966	110
8.967	110
8.968	110
8.969	110
8.97	110
8.971	110
8.972	110
8.973	110
8.974	110
8.975	110
8.976	110
8.977	110
8.978	110
8.979	110
8.98	110
8.981	110
8.982	110
8.983	110
8.984	110
8.985	110
8.986	110
8.987	110
8.988	110
8.989	110
8.99	110
8.991	110
8.992	110
8.993	110
8.994	110
8.995	110
8.996	110
8.997	110
8.998	110
8.999	110
9	110
9.001	110
9.002	110
9.003	110
9.004	110
9.005	110
9.006	110
9.007	110
9.008	110
9.009	110
9.01	110
9.011	110
9.012	110
9.013	110
9.014	110
9.015	110
9.016	110
9.017	110
9.018	110
9.019	110
9.02	110
9.021	110
9.022	110
9.023	110
9.024	110
9.025	110
9.026	110
9.027	110
9.028	110
9.029	110
9.03	110
9.031	110
9.032	110
9.033	110
9.034	110
9.035	110
9.036	110
9.037	110
9.038	110
9.039	110
9.04	110
9.041	110
9.042	110
9.043	110
9.044	110
9.045	110
9.046	110
9.047	110
9.048	110
9.049	110
9.05	110
9.051	110
9.052	110
9.053	110
9.054	110
9.055	110
9.056	110
9.057	110
9.058	110
9.059	110
9.06	110
9.061	110
9.062	110
9.063	110
9.064	110
9.065	110
9.066	110
9.067	110
9.068	110
9.069	110
9.07	110
9.071	110
9.072	110
9.073	110
9.074	110
9.075	110
9.076	110
9.077	110
9.078	110
9.079	110
9.08	110
9.081	110
9.082	110
9.083	110
9.084	110
9.085	110
9.086	110
9.087	110
9.088	110
9.089	110
9.09	110
9.091	110
9.092	110
9.093	110
9.094	110
9.095	110
9.096	110
9.097	110
9.098	110
9.099	110
9.1	110
9.101	110
9.102	110
9.103	110
9.104	110
9.105	110
9.106	110
9.107	110
9.108	110
9.109	110
9.11	110
9.111	110
9.112	110
9.113	110
9.114	110
9.115	110
9.116	110
9.117	110
9.118	110
9.119	110
9.12	110
9.121	110
9.122	110
9.123	110
9.124	110
9.125	110
9.126	110
9.127	110
9.128	110
9.129	110
9.13	110
9.131	110
9.132	110
9.133	110
9.134	110
9.135	110
9.136	110
9.137	110
9.138	110
9.139	110
9.14	110
9.141	110
9.142	110
9.143	110
9.144	110
9.145	110
9.146	110
9.147	110
9.148	110
9.149	110
9.15	110
9.151	110
9.152	110
9.153	110
9.154	110
9.155	110
9.156	110
9.157	110
9.158	110
9.159	110
9.16	110
9.161	110
9.162	110
9.163	110
9.164	110
9.165	110
9.166	110
9.167	110
9.168	110
9.169	110
9.17	110
9.171	110
9.172	110
9.173	110
9.174	110
9.175	110
9.176	110
9.177	110
9.178	110
9.179	110
9.18	110
9.181	110
9.182	110
9.183	110
9.184	110
9.185	110
9.186	110
9.187	110
9.188	110
9.189	110
9.19	110
9.191	110
9.192	110
9.193	110
9.194	110
9.195	110
9.196	110
9.197	110
9.198	110
9.199	110
9.2	110
9.201	110
9.202	110
9.203	110
9.204	110
9.205	110
9.206	110
9.207	110
9.208	110
9.209	110
9.21	110
9.211	110
9.212	110
9.213	110
9.214	110
9.215	110
9.216	110
9.217	110
9.218	110
9.219	110
9.22	110
9.221	110
9.222	110
9.223	110
9.224	110
9.225	110
9.226	110
9.227	110
9.228	110
9.229	110
9.23	110
9.231	110
9.232	110
9.233	110
9.234	110
9.235	110
9.236	110
9.237	110
9.238	110
9.239	110
9.24	110
9.241	110
9.242	110
9.243	110
9.244	110
9.245	110
9.246	110
9.247	110
9.248	110
9.249	110
9.25	110
9.251	110
9.252	110
9.253	110
9.254	110
9.255	110
9.256	110
9.257	110
9.258	110
9.259	110
9.26	110
9.261	110
9.262	110
9.263	110
9.264	110
9.265	110
9.266	110
9.267	110
9.268	110
9.269	110
9.27	110
9.271	110
9.272	110
9.273	110
9.274	110
9.275	110
9.276	110
9.277	110
9.278	110
9.279	110
9.28	110
9.281	110
9.282	110
9.283	110
9.284	110
9.285	110
9.286	110
9.287	110
9.288	110
9.289	110
9.29	110
9.291	110
9.292	110
9.293	110
9.294	110
9.295	110
9.296	110
9.297	110
9.298	110
9.299	110
9.3	110
9.301	110
9.302	110
9.303	110
9.304	110
9.305	110
9.306	110
9.307	110
9.308	110
9.309	110
9.31	110
9.311	110
9.312	110
9.313	110
9.314	110
9.315	110
9.316	110
9.317	110
9.318	110
9.319	110
9.32	110
9.321	110
9.322	110
9.323	110
9.324	110
9.325	110
9.326	110
9.327	110
9.328	110
9.329	110
9.33	110
9.331	110
9.332	110
9.333	110
9.334	110
9.335	110
9.336	110
9.337	110
9.338	110
9.339	110
9.34	110
9.341	110
9.342	110
9.343	110
9.344	110
9.345	110
9.346	110
9.347	110
9.348	110
9.349	110
9.35	110
9.351	110
9.352	110
9.353	110
9.354	110
9.355	110
9.356	110
9.357	110
9.358	110
9.359	110
9.36	110
9.361	110
9.362	110
9.363	110
9.364	110
9.365	110
9.366	110
9.367	110
9.368	110
9.369	110
9.37	110
9.371	110
9.372	110
9.373	110
9.374	110
9.375	110
9.376	110
9.377	110
9.378	110
9.379	110
9.38	110
9.381	110
9.382	110
9.383	110
9.384	110
9.385	110
9.386	110
9.387	110
9.388	110
9.389	110
9.39	110
9.391	110
9.392	110
9.393	110
9.394	110
9.395	110
9.396	110
9.397	110
9.398	110
9.399	110
9.4	110
9.401	110
9.402	110
9.403	110
9.404	110
9.405	110
9.406	110
9.407	110
9.408	110
9.409	110
9.41	110
9.411	110
9.412	110
9.413	110
9.414	110
9.415	110
9.416	110
9.417	110
9.418	110
9.419	110
9.42	110
9.421	110
9.422	110
9.423	110
9.424	110
9.425	110
9.426	110
9.427	110
9.428	110
9.429	110
9.43	110
9.431	110
9.432	110
9.433	110
9.434	110
9.435	110
9.436	110
9.437	110
9.438	110
9.439	110
9.44	110
9.441	110
9.442	110
9.443	110
9.444	110
9.445	110
9.446	110
9.447	110
9.448	110
9.449	110
9.45	110
9.451	110
9.452	110
9.453	110
9.454	110
9.455	110
9.456	110
9.457	110
9.458	110
9.459	110
9.46	110
9.461	110
9.462	110
9.463	110
9.464	110
9.465	110
9.466	110
9.467	110
9.468	110
9.469	110
9.47	110
9.471	110
9.472	110
9.473	110
9.474	110
9.475	110
9.476	110
9.477	110
9.478	110
9.479	110
9.48	110
9.481	110
9.482	110
9.483	110
9.484	110
9.485	110
9.486	110
9.487	110
9.488	110
9.489	110
9.49	110
9.491	110
9.492	110
9.493	110
9.494	110
9.495	110
9.496	110
9.497	110
9.498	110
9.499	110
9.5	110
9.501	110
9.502	110
9.503	110
9.504	110
9.505	110
9.506	110
9.507	110
9.508	110
9.509	110
9.51	110
9.511	110
9.512	110
9.513	110
9.514	110
9.515	110
9.516	110
9.517	110
9.518	110
9.519	110
9.52	110
9.521	110
9.522	110
9.523	110
9.524	110
9.525	110
9.526	110
9.527	110
9.528	110
9.529	110
9.53	110
9.531	110
9.532	110
9.533	110
9.534	110
9.535	110
9.536	110
9.537	110
9.538	110
9.539	110
9.54	110
9.541	110
9.542	110
9.543	110
9.544	110
9.545	110
9.546	110
9.547	110
9.548	110
9.549	110
9.55	110
9.551	110
9.552	110
9.553	110
9.554	110
9.555	110
9.556	110
9.557	110
9.558	110
9.559	110
9.56	110
9.561	110
9.562	110
9.563	110
9.564	110
9.565	110
9.566	110
9.567	110
9.568	110
9.569	110
9.57	110
9.571	110
9.572	110
9.573	110
9.574	110
9.575	110
9.576	110
9.577	110
9.578	110
9.579	110
9.58	110
9.581	110
9.582	110
9.583	110
9.584	110
9.585	110
9.586	110
9.587	110
9.588	110
9.589	110
9.59	110
9.591	110
9.592	110
9.593	110
9.594	110
9.595	110
9.596	110
9.597	110
9.598	110
9.599	110
9.6	110
9.601	110
9.602	110
9.603	110
9.604	110
9.605	110
9.606	110
9.607	110
9.608	110
9.609	110
9.61	110
9.611	110
9.612	110
9.613	110
9.614	110
9.615	110
9.616	110
9.617	110
9.618	110
9.619	110
9.62	110
9.621	110
9.622	110
9.623	110
9.624	110
9.625	110
9.626	110
9.627	110
9.628	110
9.629	110
9.63	110
9.631	110
9.632	110
9.633	110
9.634	110
9.635	110
9.636	110
9.637	110
9.638	110
9.639	110
9.64	110
9.641	110
9.642	110
9.643	110
9.644	110
9.645	110
9.646	110
9.647	110
9.648	110
9.649	110
9.65	110
9.651	110
9.652	110
9.653	110
9.654	110
9.655	110
9.656	110
9.657	110
9.658	110
9.659	110
9.66	110
9.661	110
9.662	110
9.663	110
9.664	110
9.665	110
9.666	110
9.667	110
9.668	110
9.669	110
9.67	110
9.671	110
9.672	110
9.673	110
9.674	110
9.675	110
9.676	110
9.677	110
9.678	110
9.679	110
9.68	110
9.681	110
9.682	110
9.683	110
9.684	110
9.685	110
9.686	110
9.687	110
9.688	110
9.689	110
9.69	110
9.691	110
9.692	110
9.693	110
9.694	110
9.695	110
9.696	110
9.697	110
9.698	110
9.699	110
9.7	110
9.701	110
9.702	110
9.703	110
9.704	110
9.705	110
9.706	110
9.707	110
9.708	110
9.709	110
9.71	110
9.711	110
9.712	110
9.713	110
9.714	110
9.715	110
9.716	110
9.717	110
9.718	110
9.719	110
9.72	110
9.721	110
9.722	110
9.723	110
9.724	110
9.725	110
9.726	110
9.727	110
9.728	110
9.729	110
9.73	110
9.731	110
9.732	110
9.733	110
9.734	110
9.735	110
9.736	110
9.737	110
9.738	110
9.739	110
9.74	110
9.741	110
9.742	110
9.743	110
9.744	110
9.745	110
9.746	110
9.747	110
9.748	110
9.749	110
9.75	110
9.751	110
9.752	110
9.753	110
9.754	110
9.755	110
9.756	110
9.757	110
9.758	110
9.759	110
9.76	110
9.761	110
9.762	110
9.763	110
9.764	110
9.765	110
9.766	110
9.767	110
9.768	110
9.769	110
9.77	110
9.771	110
9.772	110
9.773	110
9.774	110
9.775	110
9.776	110
9.777	110
9.778	110
9.779	110
9.78	110
9.781	110
9.782	110
9.783	110
9.784	110
9.785	110
9.786	110
9.787	110
9.788	110
9.789	110
9.79	110
9.791	110
9.792	110
9.793	110
9.794	110
9.795	110
9.796	110
9.797	110
9.798	110
9.799	110
9.8	110
9.801	110
9.802	110
9.803	110
9.804	110
9.805	110
9.806	110
9.807	110
9.808	110
9.809	110
9.81	110
9.811	110
9.812	110
9.813	110
9.814	110
9.815	110
9.816	110
9.817	110
9.818	110
9.819	110
9.82	110
9.821	110
9.822	110
9.823	110
9.824	110
9.825	110
9.826	110
9.827	110
9.828	110
9.829	110
9.83	110
9.831	110
9.832	110
9.833	110
9.834	110
9.835	110
9.836	110
9.837	110
9.838	110
9.839	110
9.84	110
9.841	110
9.842	110
9.843	110
9.844	110
9.845	110
9.846	110
9.847	110
9.848	110
9.849	110
9.85	110
9.851	110
9.852	110
9.853	110
9.854	110
9.855	110
9.856	110
9.857	110
9.858	110
9.859	110
9.86	110
9.861	110
9.862	110
9.863	110
9.864	110
9.865	110
9.866	110
9.867	110
9.868	110
9.869	110
9.87	110
9.871	110
9.872	110
9.873	110
9.874	110
9.875	110
9.876	110
9.877	110
9.878	110
9.879	110
9.88	110
9.881	110
9.882	110
9.883	110
9.884	110
9.885	110
9.886	110
9.887	110
9.888	110
9.889	110
9.89	110
9.891	110
9.892	110
9.893	110
9.894	110
9.895	110
9.896	110
9.897	110
9.898	110
9.899	110
9.9	110
9.901	110
9.902	110
9.903	110
9.904	110
9.905	110
9.906	110
9.907	110
9.908	110
9.909	110
9.91	110
9.911	110
9.912	110
9.913	110
9.914	110
9.915	110
9.916	110
9.917	110
9.918	110
9.919	110
9.92	110
9.921	110
9.922	110
9.923	110
9.924	110
9.925	110
9.926	110
9.927	110
9.928	110
9.929	110
9.93	110
9.931	110
9.932	110
9.933	110
9.934	110
9.935	110
9.936	110
9.937	110
9.938	110
9.939	110
9.94	110
9.941	110
9.942	110
9.943	110
9.944	110
9.945	110
9.946	110
9.947	110
9.948	110
9.949	110
9.95	110
9.951	110
9.952	110
9.953	110
9.954	110
9.955	110
9.956	110
9.957	110
9.958	110
9.959	110
9.96	110
9.961	110
9.962	110
9.963	110
9.964	110
9.965	110
9.966	110
9.967	110
9.968	110
9.969	110
9.97	110
9.971	110
9.972	110
9.973	110
9.974	110
9.975	110
9.976	110
9.977	110
9.978	110
9.979	110
9.98	110
9.981	110
9.982	110
9.983	110
9.984	110
9.985	110
9.986	110
9.987	110
9.988	110
9.989	110
9.99	110
9.991	110
9.992	110
9.993	110
9.994	110
9.995	110
9.996	110
9.997	110
9.998	110
9.999	110
10	110
10.001	110
10.002	110
10.003	110
10.004	110
10.005	110
10.006	110
10.007	110
10.008	110
10.009	110
10.01	110
10.011	110
10.012	110
10.013	110
10.014	110
10.015	110
10.016	110
10.017	110
10.018	110
10.019	110
10.02	110
10.021	110
10.022	110
10.023	110
10.024	110
10.025	110
10.026	110
10.027	110
10.028	110
10.029	110
10.03	110
10.031	110
10.032	110
10.033	110
10.034	110
10.035	110
10.036	110
10.037	110
10.038	110
10.039	110
10.04	110
10.041	110
10.042	110
10.043	110
10.044	110
10.045	110
10.046	110
10.047	110
10.048	110
10.049	110
10.05	110
10.051	110
10.052	110
10.053	110
10.054	110
10.055	110
10.056	110
10.057	110
10.058	110
10.059	110
10.06	110
10.061	110
10.062	110
10.063	110
10.064	110
10.065	110
10.066	110
10.067	110
10.068	110
10.069	110
10.07	110
10.071	110
10.072	110
10.073	110
10.074	110
10.075	110
10.076	110
10.077	110
10.078	110
10.079	110
10.08	110
10.081	110
10.082	110
10.083	110
10.084	110
10.085	110
10.086	110
10.087	110
10.088	110
10.089	110
10.09	110
10.091	110
10.092	110
10.093	110
10.094	110
10.095	110
10.096	110
10.097	110
10.098	110
10.099	110
10.1	110
10.101	110
10.102	110
10.103	110
10.104	110
10.105	110
10.106	110
10.107	110
10.108	110
10.109	110
10.11	110
10.111	110
10.112	110
10.113	110
10.114	110
10.115	110
10.116	110
10.117	110
10.118	110
10.119	110
10.12	110
10.121	110
10.122	110
10.123	110
10.124	110
10.125	110
10.126	110
10.127	110
10.128	110
10.129	110
10.13	110
10.131	110
10.132	110
10.133	110
10.134	110
10.135	110
10.136	110
10.137	110
10.138	110
10.139	110
10.14	110
10.141	110
10.142	110
10.143	110
10.144	110
10.145	110
10.146	110
10.147	110
10.148	110
10.149	110
10.15	110
10.151	110
10.152	110
10.153	110
10.154	110
10.155	110
10.156	110
10.157	110
10.158	110
10.159	110
10.16	110
10.161	110
10.162	110
10.163	110
10.164	110
10.165	110
10.166	110
10.167	110
10.168	110
10.169	110
10.17	110
10.171	110
10.172	110
10.173	110
10.174	110
10.175	110
10.176	110
10.177	110
10.178	110
10.179	110
10.18	110
10.181	110
10.182	110
10.183	110
10.184	110
10.185	110
10.186	110
10.187	110
10.188	110
10.189	110
10.19	110
10.191	110
10.192	110
10.193	110
10.194	110
10.195	110
10.196	110
10.197	110
10.198	110
10.199	110
10.2	110
10.201	110
10.202	110
10.203	110
10.204	110
10.205	110
10.206	110
10.207	110
10.208	110
10.209	110
10.21	110
10.211	110
10.212	110
10.213	110
10.214	110
10.215	110
10.216	110
10.217	110
10.218	110
10.219	110
10.22	110
10.221	110
10.222	110
10.223	110
10.224	110
10.225	110
10.226	110
10.227	110
10.228	110
10.229	110
10.23	110
10.231	110
10.232	110
10.233	110
10.234	110
10.235	110
10.236	110
10.237	110
10.238	110
10.239	110
10.24	110
10.241	110
10.242	110
10.243	110
10.244	110
10.245	110
10.246	110
10.247	110
10.248	110
10.249	110
10.25	110
10.251	110
10.252	110
10.253	110
10.254	110
10.255	110
10.256	110
10.257	110
10.258	110
10.259	110
10.26	110
10.261	110
10.262	110
10.263	110
10.264	110
10.265	110
10.266	110
10.267	110
10.268	110
10.269	110
10.27	110
10.271	110
10.272	110
10.273	110
10.274	110
10.275	110
10.276	110
10.277	110
10.278	110
10.279	110
10.28	110
10.281	110
10.282	110
10.283	110
10.284	110
10.285	110
10.286	110
10.287	110
10.288	110
10.289	110
10.29	110
10.291	110
10.292	110
10.293	110
10.294	110
10.295	110
10.296	110
10.297	110
10.298	110
10.299	110
10.3	110
10.301	110
10.302	110
10.303	110
10.304	110
10.305	110
10.306	110
10.307	110
10.308	110
10.309	110
10.31	110
10.311	110
10.312	110
10.313	110
10.314	110
10.315	110
10.316	110
10.317	110
10.318	110
10.319	110
10.32	110
10.321	110
10.322	110
10.323	110
10.324	110
10.325	110
10.326	110
10.327	110
10.328	110
10.329	110
10.33	110
10.331	110
10.332	110
10.333	110
10.334	110
10.335	110
10.336	110
10.337	110
10.338	110
10.339	110
10.34	110
10.341	110
10.342	110
10.343	110
10.344	110
10.345	110
10.346	110
10.347	110
10.348	110
10.349	110
10.35	110
10.351	110
10.352	110
10.353	110
10.354	110
10.355	110
10.356	110
10.357	110
10.358	110
10.359	110
10.36	110
10.361	110
10.362	110
10.363	110
10.364	110
10.365	110
10.366	110
10.367	110
10.368	110
10.369	110
10.37	110
10.371	110
10.372	110
10.373	110
10.374	110
10.375	110
10.376	110
10.377	110
10.378	110
10.379	110
10.38	110
10.381	110
10.382	110
10.383	110
10.384	110
10.385	110
10.386	110
10.387	110
10.388	110
10.389	110
10.39	110
10.391	110
10.392	110
10.393	110
10.394	110
10.395	110
10.396	110
10.397	110
10.398	110
10.399	110
10.4	110
10.401	110
10.402	110
10.403	110
10.404	110
10.405	110
10.406	110
10.407	110
10.408	110
10.409	110
10.41	110
10.411	110
10.412	110
10.413	110
10.414	110
10.415	110
10.416	110
10.417	110
10.418	110
10.419	110
10.42	110
10.421	110
10.422	110
10.423	110
10.424	110
10.425	110
10.426	110
10.427	110
10.428	110
10.429	110
10.43	110
10.431	110
10.432	110
10.433	110
10.434	110
10.435	110
10.436	110
10.437	110
10.438	110
10.439	110
10.44	110
10.441	110
10.442	110
10.443	110
10.444	110
10.445	110
10.446	110
10.447	110
10.448	110
10.449	110
10.45	110
10.451	110
10.452	110
10.453	110
10.454	110
10.455	110
10.456	110
10.457	110
10.458	110
10.459	110
10.46	110
10.461	110
10.462	110
10.463	110
10.464	110
10.465	110
10.466	110
10.467	110
10.468	110
10.469	110
10.47	110
10.471	110
10.472	110
10.473	110
10.474	110
10.475	110
10.476	110
10.477	110
10.478	110
10.479	110
10.48	110
10.481	110
10.482	110
10.483	110
10.484	110
10.485	110
10.486	110
10.487	110
10.488	110
10.489	110
10.49	110
10.491	110
10.492	110
10.493	110
10.494	110
10.495	110
10.496	110
10.497	110
10.498	110
10.499	110
10.5	110
10.501	110
10.502	110
10.503	110
10.504	110
10.505	110
10.506	110
10.507	110
10.508	110
10.509	110
10.51	110
10.511	110
10.512	110
10.513	110
10.514	110
10.515	110
10.516	110
10.517	110
10.518	110
10.519	110
10.52	110
10.521	110
10.522	110
10.523	110
10.524	110
10.525	110
10.526	110
10.527	110
10.528	110
10.529	110
10.53	110
10.531	110
10.532	110
10.533	110
10.534	110
10.535	110
10.536	110
10.537	110
10.538	110
10.539	110
10.54	110
10.541	110
10.542	110
10.543	110
10.544	110
10.545	110
10.546	110
10.547	110
10.548	110
10.549	110
10.55	110
10.551	110
10.552	110
10.553	110
10.554	110
10.555	110
10.556	110
10.557	110
10.558	110
10.559	110
10.56	110
10.561	110
10.562	110
10.563	110
10.564	110
10.565	110
10.566	110
10.567	110
10.568	110
10.569	110
10.57	110
10.571	110
10.572	110
10.573	110
10.574	110
10.575	110
10.576	110
10.577	110
10.578	110
10.579	110
10.58	110
10.581	110
10.582	110
10.583	110
10.584	110
10.585	110
10.586	110
10.587	110
10.588	110
10.589	110
10.59	110
10.591	110
10.592	110
10.593	110
10.594	110
10.595	110
10.596	110
10.597	110
10.598	110
10.599	110
10.6	110
10.601	110
10.602	110
10.603	110
10.604	110
10.605	110
10.606	110
10.607	110
10.608	110
10.609	110
10.61	110
10.611	110
10.612	110
10.613	110
10.614	110
10.615	110
10.616	110
10.617	110
10.618	110
10.619	110
10.62	110
10.621	110
10.622	110
10.623	110
10.624	110
10.625	110
10.626	110
10.627	110
10.628	110
10.629	110
10.63	110
10.631	110
10.632	110
10.633	110
10.634	110
10.635	110
10.636	110
10.637	110
10.638	110
10.639	110
10.64	110
10.641	110
10.642	110
10.643	110
10.644	110
10.645	110
10.646	110
10.647	110
10.648	110
10.649	110
10.65	110
10.651	110
10.652	110
10.653	110
10.654	110
10.655	110
10.656	110
10.657	110
10.658	110
10.659	110
10.66	110
10.661	110
10.662	110
10.663	110
10.664	110
10.665	110
10.666	110
10.667	110
10.668	110
10.669	110
10.67	110
10.671	110
10.672	110
10.673	110
10.674	110
10.675	110
10.676	110
10.677	110
10.678	110
10.679	110
10.68	110
10.681	110
10.682	110
10.683	110
10.684	110
10.685	110
10.686	110
10.687	110
10.688	110
10.689	110
10.69	110
10.691	110
10.692	110
10.693	110
10.694	110
10.695	110
10.696	110
10.697	110
10.698	110
10.699	110
10.7	110
10.701	110
10.702	110
10.703	110
10.704	110
10.705	110
10.706	110
10.707	110
10.708	110
10.709	110
10.71	110
10.711	110
10.712	110
10.713	110
10.714	110
10.715	110
10.716	110
10.717	110
10.718	110
10.719	110
10.72	110
10.721	110
10.722	110
10.723	110
10.724	110
10.725	110
10.726	110
10.727	110
10.728	110
10.729	110
10.73	110
10.731	110
10.732	110
10.733	110
10.734	110
10.735	110
10.736	110
10.737	110
10.738	110
10.739	110
10.74	110
10.741	110
10.742	110
10.743	110
10.744	110
10.745	110
10.746	110
10.747	110
10.748	110
10.749	110
10.75	110
10.751	110
10.752	110
10.753	110
10.754	110
10.755	110
10.756	110
10.757	110
10.758	110
10.759	110
10.76	110
10.761	110
10.762	110
10.763	110
10.764	110
10.765	110
10.766	110
10.767	110
10.768	110
10.769	110
10.77	110
10.771	110
10.772	110
10.773	110
10.774	110
10.775	110
10.776	110
10.777	110
10.778	110
10.779	110
10.78	110
10.781	110
10.782	110
10.783	110
10.784	110
10.785	110
10.786	110
10.787	110
10.788	110
10.789	110
10.79	110
10.791	110
10.792	110
10.793	110
10.794	110
10.795	110
10.796	110
10.797	110
10.798	110
10.799	110
10.8	110
10.801	110
10.802	110
10.803	110
10.804	110
10.805	110
10.806	110
10.807	110
10.808	110
10.809	110
10.81	110
10.811	110
10.812	110
10.813	110
10.814	110
10.815	110
10.816	110
10.817	110
10.818	110
10.819	110
10.82	110
10.821	110
10.822	110
10.823	110
10.824	110
10.825	110
10.826	110
10.827	110
10.828	110
10.829	110
10.83	110
10.831	110
10.832	110
10.833	110
10.834	110
10.835	110
10.836	110
10.837	110
10.838	110
10.839	110
10.84	110
10.841	110
10.842	110
10.843	110
10.844	110
10.845	110
10.846	110
10.847	110
10.848	110
10.849	110
10.85	110
10.851	110
10.852	110
10.853	110
10.854	110
10.855	110
10.856	110
10.857	110
10.858	110
10.859	110
10.86	110
10.861	110
10.862	110
10.863	110
10.864	110
10.865	110
10.866	110
10.867	110
10.868	110
10.869	110
10.87	110
10.871	110
10.872	110
10.873	110
10.874	110
10.875	110
10.876	110
10.877	110
10.878	110
10.879	110
10.88	110
10.881	110
10.882	110
10.883	110
10.884	110
10.885	110
10.886	110
10.887	110
10.888	110
10.889	110
10.89	110
10.891	110
10.892	110
10.893	110
10.894	110
10.895	110
10.896	110
10.897	110
10.898	110
10.899	110
10.9	110
10.901	110
10.902	110
10.903	110
10.904	110
10.905	110
10.906	110
10.907	110
10.908	110
10.909	110
10.91	110
10.911	110
10.912	110
10.913	110
10.914	110
10.915	110
10.916	110
10.917	110
10.918	110
10.919	110
10.92	110
10.921	110
10.922	110
10.923	110
10.924	110
10.925	110
10.926	110
10.927	110
10.928	110
10.929	110
10.93	110
10.931	110
10.932	110
10.933	110
10.934	110
10.935	110
10.936	110
10.937	110
10.938	110
10.939	110
10.94	110
10.941	110
10.942	110
10.943	110
10.944	110
10.945	110
10.946	110
10.947	110
10.948	110
10.949	110
10.95	110
10.951	110
10.952	110
10.953	110
10.954	110
10.955	110
10.956	110
10.957	110
10.958	110
10.959	110
10.96	110
10.961	110
10.962	110
10.963	110
10.964	110
10.965	110
10.966	110
10.967	110
10.968	110
10.969	110
10.97	110
10.971	110
10.972	110
10.973	110
10.974	110
10.975	110
10.976	110
10.977	110
10.978	110
10.979	110
10.98	110
10.981	110
10.982	110
10.983	110
10.984	110
10.985	110
10.986	110
10.987	110
10.988	110
10.989	110
10.99	110
10.991	110
10.992	110
10.993	110
10.994	110
10.995	110
10.996	110
10.997	110
10.998	110
10.999	110
11	110
11.001	110
11.002	110
11.003	110
11.004	110
11.005	110
11.006	110
11.007	110
11.008	110
11.009	110
11.01	110
11.011	110
11.012	110
11.013	110
11.014	110
11.015	110
11.016	110
11.017	110
11.018	110
11.019	110
11.02	110
11.021	110
11.022	110
11.023	110
11.024	110
11.025	110
11.026	110
11.027	110
11.028	110
11.029	110
11.03	110
11.031	110
11.032	110
11.033	110
11.034	110
11.035	110
11.036	110
11.037	110
11.038	110
11.039	110
11.04	110
11.041	110
11.042	110
11.043	110
11.044	110
11.045	110
11.046	110
11.047	110
11.048	110
11.049	110
11.05	110
11.051	110
11.052	110
11.053	110
11.054	110
11.055	110
11.056	110
11.057	110
11.058	110
11.059	110
11.06	110
11.061	110
11.062	110
11.063	110
11.064	110
11.065	110
11.066	110
11.067	110
11.068	110
11.069	110
11.07	110
11.071	110
11.072	110
11.073	110
11.074	110
11.075	110
11.076	110
11.077	110
11.078	110
11.079	110
11.08	110
11.081	110
11.082	110
11.083	110
11.084	110
11.085	110
11.086	110
11.087	110
11.088	110
11.089	110
11.09	110
11.091	110
11.092	110
11.093	110
11.094	110
11.095	110
11.096	110
11.097	110
11.098	110
11.099	110
11.1	110
11.101	110
11.102	110
11.103	110
11.104	110
11.105	110
11.106	110
11.107	110
11.108	110
11.109	110
11.11	110
11.111	110
11.112	110
11.113	110
11.114	110
11.115	110
11.116	110
11.117	110
11.118	110
11.119	110
11.12	110
11.121	110
11.122	110
11.123	110
11.124	110
11.125	110
11.126	110
11.127	110
11.128	110
11.129	110
11.13	110
11.131	110
11.132	110
11.133	110
11.134	110
11.135	110
11.136	110
11.137	110
11.138	110
11.139	110
11.14	110
11.141	110
11.142	110
11.143	110
11.144	110
11.145	110
11.146	110
11.147	110
11.148	110
11.149	110
11.15	110
11.151	110
11.152	110
11.153	110
11.154	110
11.155	110
11.156	110
11.157	110
11.158	110
11.159	110
11.16	110
11.161	110
11.162	110
11.163	110
11.164	110
11.165	110
11.166	110
11.167	110
11.168	110
11.169	110
11.17	110
11.171	110
11.172	110
11.173	110
11.174	110
11.175	110
11.176	110
11.177	110
11.178	110
11.179	110
11.18	110
11.181	110
11.182	110
11.183	110
11.184	110
11.185	110
11.186	110
11.187	110
11.188	110
11.189	110
11.19	110
11.191	110
11.192	110
11.193	110
11.194	110
11.195	110
11.196	110
11.197	110
11.198	110
11.199	110
11.2	110
11.201	110
11.202	110
11.203	110
11.204	110
11.205	110
11.206	110
11.207	110
11.208	110
11.209	110
11.21	110
11.211	110
11.212	110
11.213	110
11.214	110
11.215	110
11.216	110
11.217	110
11.218	110
11.219	110
11.22	110
11.221	110
11.222	110
11.223	110
11.224	110
11.225	110
11.226	110
11.227	110
11.228	110
11.229	110
11.23	110
11.231	110
11.232	110
11.233	110
11.234	110
11.235	110
11.236	110
11.237	110
11.238	110
11.239	110
11.24	110
11.241	110
11.242	110
11.243	110
11.244	110
11.245	110
11.246	110
11.247	110
11.248	110
11.249	110
11.25	110
11.251	110
11.252	110
11.253	110
11.254	110
11.255	110
11.256	110
11.257	110
11.258	110
11.259	110
11.26	110
11.261	110
11.262	110
11.263	110
11.264	110
11.265	110
11.266	110
11.267	110
11.268	110
11.269	110
11.27	110
11.271	110
11.272	110
11.273	110
11.274	110
11.275	110
11.276	110
11.277	110
11.278	110
11.279	110
11.28	110
11.281	110
11.282	110
11.283	110
11.284	110
11.285	110
11.286	110
11.287	110
11.288	110
11.289	110
11.29	110
11.291	110
11.292	110
11.293	110
11.294	110
11.295	110
11.296	110
11.297	110
11.298	110
11.299	110
11.3	110
11.301	110
11.302	110
11.303	110
11.304	110
11.305	110
11.306	110
11.307	110
11.308	110
11.309	110
11.31	110
11.311	110
11.312	110
11.313	110
11.314	110
11.315	110
11.316	110
11.317	110
11.318	110
11.319	110
11.32	110
11.321	110
11.322	110
11.323	110
11.324	110
11.325	110
11.326	110
11.327	110
11.328	110
11.329	110
11.33	110
11.331	110
11.332	110
11.333	110
11.334	110
11.335	110
11.336	110
11.337	110
11.338	110
11.339	110
11.34	110
11.341	110
11.342	110
11.343	110
11.344	110
11.345	110
11.346	110
11.347	110
11.348	110
11.349	110
11.35	110
11.351	110
11.352	110
11.353	110
11.354	110
11.355	110
11.356	110
11.357	110
11.358	110
11.359	110
11.36	110
11.361	110
11.362	110
11.363	110
11.364	110
11.365	110
11.366	110
11.367	110
11.368	110
11.369	110
11.37	110
11.371	110
11.372	110
11.373	110
11.374	110
11.375	110
11.376	110
11.377	110
11.378	110
11.379	110
11.38	110
11.381	110
11.382	110
11.383	110
11.384	110
11.385	110
11.386	110
11.387	110
11.388	110
11.389	110
11.39	110
11.391	110
11.392	110
11.393	110
11.394	110
11.395	110
11.396	110
11.397	110
11.398	110
11.399	110
11.4	110
11.401	110
11.402	110
11.403	110
11.404	110
11.405	110
11.406	110
11.407	110
11.408	110
11.409	110
11.41	110
11.411	110
11.412	110
11.413	110
11.414	110
11.415	110
11.416	110
11.417	110
11.418	110
11.419	110
11.42	110
11.421	110
11.422	110
11.423	110
11.424	110
11.425	110
11.426	110
11.427	110
11.428	110
11.429	110
11.43	110
11.431	110
11.432	110
11.433	110
11.434	110
11.435	110
11.436	110
11.437	110
11.438	110
11.439	110
11.44	110
11.441	110
11.442	110
11.443	110
11.444	110
11.445	110
11.446	110
11.447	110
11.448	110
11.449	110
11.45	110
11.451	110
11.452	110
11.453	110
11.454	110
11.455	110
11.456	110
11.457	110
11.458	110
11.459	110
11.46	110
11.461	110
11.462	110
11.463	110
11.464	110
11.465	110
11.466	110
11.467	110
11.468	110
11.469	110
11.47	110
11.471	110
11.472	110
11.473	110
11.474	110
11.475	110
11.476	110
11.477	110
11.478	110
11.479	110
11.48	110
11.481	110
11.482	110
11.483	110
11.484	110
11.485	110
11.486	110
11.487	110
11.488	110
11.489	110
11.49	110
11.491	110
11.492	110
11.493	110
11.494	110
11.495	110
11.496	110
11.497	110
11.498	110
11.499	110
11.5	110
11.501	110
11.502	110
11.503	110
11.504	110
11.505	110
11.506	110
11.507	110
11.508	110
11.509	110
11.51	110
11.511	110
11.512	110
11.513	110
11.514	110
11.515	110
11.516	110
11.517	110
11.518	110
11.519	110
11.52	110
11.521	110
11.522	110
11.523	110
11.524	110
11.525	110
11.526	110
11.527	110
11.528	110
11.529	110
11.53	110
11.531	110
11.532	110
11.533	110
11.534	110
11.535	110
11.536	110
11.537	110
11.538	110
11.539	110
11.54	110
11.541	110
11.542	110
11.543	110
11.544	110
11.545	110
11.546	110
11.547	110
11.548	110
11.549	110
11.55	110
11.551	110
11.552	110
11.553	110
11.554	110
11.555	110
11.556	110
11.557	110
11.558	110
11.559	110
11.56	110
11.561	110
11.562	110
11.563	110
11.564	110
11.565	110
11.566	110
11.567	110
11.568	110
11.569	110
11.57	110
11.571	110
11.572	110
11.573	110
11.574	110
11.575	110
11.576	110
11.577	110
11.578	110
11.579	110
11.58	110
11.581	110
11.582	110
11.583	110
11.584	110
11.585	110
11.586	110
11.587	110
11.588	110
11.589	110
11.59	110
11.591	110
11.592	110
11.593	110
11.594	110
11.595	110
11.596	110
11.597	110
11.598	110
11.599	110
11.6	110
11.601	110
11.602	110
11.603	110
11.604	110
11.605	110
11.606	110
11.607	110
11.608	110
11.609	110
11.61	110
11.611	110
11.612	110
11.613	110
11.614	110
11.615	110
11.616	110
11.617	110
11.618	110
11.619	110
11.62	110
11.621	110
11.622	110
11.623	110
11.624	110
11.625	110
11.626	110
11.627	110
11.628	110
11.629	110
11.63	110
11.631	110
11.632	110
11.633	110
11.634	110
11.635	110
11.636	110
11.637	110
11.638	110
11.639	110
11.64	110
11.641	110
11.642	110
11.643	110
11.644	110
11.645	110
11.646	110
11.647	110
11.648	110
11.649	110
11.65	110
11.651	110
11.652	110
11.653	110
11.654	110
11.655	110
11.656	110
11.657	110
11.658	110
11.659	110
11.66	110
11.661	110
11.662	110
11.663	110
11.664	110
11.665	110
11.666	110
11.667	110
11.668	110
11.669	110
11.67	110
11.671	110
11.672	110
11.673	110
11.674	110
11.675	110
11.676	110
11.677	110
11.678	110
11.679	110
11.68	110
11.681	110
11.682	110
11.683	110
11.684	110
11.685	110
11.686	110
11.687	110
11.688	110
11.689	110
11.69	110
11.691	110
11.692	110
11.693	110
11.694	110
11.695	110
11.696	110
11.697	110
11.698	110
11.699	110
11.7	110
11.701	110
11.702	110
11.703	110
11.704	110
11.705	110
11.706	110
11.707	110
11.708	110
11.709	110
11.71	110
11.711	110
11.712	110
11.713	110
11.714	110
11.715	110
11.716	110
11.717	110
11.718	110
11.719	110
11.72	110
11.721	110
11.722	110
11.723	110
11.724	110
11.725	110
11.726	110
11.727	110
11.728	110
11.729	110
11.73	110
11.731	110
11.732	110
11.733	110
11.734	110
11.735	110
11.736	110
11.737	110
11.738	110
11.739	110
11.74	110
11.741	110
11.742	110
11.743	110
11.744	110
11.745	110
11.746	110
11.747	110
11.748	110
11.749	110
11.75	110
11.751	110
11.752	110
11.753	110
11.754	110
11.755	110
11.756	110
11.757	110
11.758	110
11.759	110
11.76	110
11.761	110
11.762	110
11.763	110
11.764	110
11.765	110
11.766	110
11.767	110
11.768	110
11.769	110
11.77	110
11.771	110
11.772	110
11.773	110
11.774	110
11.775	110
11.776	110
11.777	110
11.778	110
11.779	110
11.78	110
11.781	110
11.782	110
11.783	110
11.784	110
11.785	110
11.786	110
11.787	110
11.788	110
11.789	110
11.79	110
11.791	110
11.792	110
11.793	110
11.794	110
11.795	110
11.796	110
11.797	110
11.798	110
11.799	110
11.8	110
11.801	110
11.802	110
11.803	110
11.804	110
11.805	110
11.806	110
11.807	110
11.808	110
11.809	110
11.81	110
11.811	110
11.812	110
11.813	110
11.814	110
11.815	110
11.816	110
11.817	110
11.818	110
11.819	110
11.82	110
11.821	110
11.822	110
11.823	110
11.824	110
11.825	110
11.826	110
11.827	110
11.828	110
11.829	110
11.83	110
11.831	110
11.832	110
11.833	110
11.834	110
11.835	110
11.836	110
11.837	110
11.838	110
11.839	110
11.84	110
11.841	110
11.842	110
11.843	110
11.844	110
11.845	110
11.846	110
11.847	110
11.848	110
11.849	110
11.85	110
11.851	110
11.852	110
11.853	110
11.854	110
11.855	110
11.856	110
11.857	110
11.858	110
11.859	110
11.86	110
11.861	110
11.862	110
11.863	110
11.864	110
11.865	110
11.866	110
11.867	110
11.868	110
11.869	110
11.87	110
11.871	110
11.872	110
11.873	110
11.874	110
11.875	110
11.876	110
11.877	110
11.878	110
11.879	110
11.88	110
11.881	110
11.882	110
11.883	110
11.884	110
11.885	110
11.886	110
11.887	110
11.888	110
11.889	110
11.89	110
11.891	110
11.892	110
11.893	110
11.894	110
11.895	110
11.896	110
11.897	110
11.898	110
11.899	110
11.9	110
11.901	110
11.902	110
11.903	110
11.904	110
11.905	110
11.906	110
11.907	110
11.908	110
11.909	110
11.91	110
11.911	110
11.912	110
11.913	110
11.914	110
11.915	110
11.916	110
11.917	110
11.918	110
11.919	110
11.92	110
11.921	110
11.922	110
11.923	110
11.924	110
11.925	110
11.926	110
11.927	110
11.928	110
11.929	110
11.93	110
11.931	110
11.932	110
11.933	110
11.934	110
11.935	110
11.936	110
11.937	110
11.938	110
11.939	110
11.94	110
11.941	110
11.942	110
11.943	110
11.944	110
11.945	110
11.946	110
11.947	110
11.948	110
11.949	110
11.95	110
11.951	110
11.952	110
11.953	110
11.954	110
11.955	110
11.956	110
11.957	110
11.958	110
11.959	110
11.96	110
11.961	110
11.962	110
11.963	110
11.964	110
11.965	110
11.966	110
11.967	110
11.968	110
11.969	110
11.97	110
11.971	110
11.972	110
11.973	110
11.974	110
11.975	110
11.976	110
11.977	110
11.978	110
11.979	110
11.98	110
11.981	110
11.982	110
11.983	110
11.984	110
11.985	110
11.986	110
11.987	110
11.988	110
11.989	110
11.99	110
11.991	110
11.992	110
11.993	110
11.994	110
11.995	110
11.996	110
11.997	110
11.998	110
11.999	110
12	110
12.001	110
12.002	110
12.003	110
12.004	110
12.005	110
12.006	110
12.007	110
12.008	110
12.009	110
12.01	110
12.011	110
12.012	110
12.013	110
12.014	110
12.015	110
12.016	110
12.017	110
12.018	110
12.019	110
12.02	110
12.021	110
12.022	110
12.023	110
12.024	110
12.025	110
12.026	110
12.027	110
12.028	110
12.029	110
12.03	110
12.031	110
12.032	110
12.033	110
12.034	110
12.035	110
12.036	110
12.037	110
12.038	110
12.039	110
12.04	110
12.041	110
12.042	110
12.043	110
12.044	110
12.045	110
12.046	110
12.047	110
12.048	110
12.049	110
12.05	110
12.051	110
12.052	110
12.053	110
12.054	110
12.055	110
12.056	110
12.057	110
12.058	110
12.059	110
12.06	110
12.061	110
12.062	110
12.063	110
12.064	110
12.065	110
12.066	110
12.067	110
12.068	110
12.069	110
12.07	110
12.071	110
12.072	110
12.073	110
12.074	110
12.075	110
12.076	110
12.077	110
12.078	110
12.079	110
12.08	110
12.081	110
12.082	110
12.083	110
12.084	110
12.085	110
12.086	110
12.087	110
12.088	110
12.089	110
12.09	110
12.091	110
12.092	110
12.093	110
12.094	110
12.095	110
12.096	110
12.097	110
12.098	110
12.099	110
12.1	110
12.101	110
12.102	110
12.103	110
12.104	110
12.105	110
12.106	110
12.107	110
12.108	110
12.109	110
12.11	110
12.111	110
12.112	110
12.113	110
12.114	110
12.115	110
12.116	110
12.117	110
12.118	110
12.119	110
12.12	110
12.121	110
12.122	110
12.123	110
12.124	110
12.125	110
12.126	110
12.127	110
12.128	110
12.129	110
12.13	110
12.131	110
12.132	110
12.133	110
12.134	110
12.135	110
12.136	110
12.137	110
12.138	110
12.139	110
12.14	110
12.141	110
12.142	110
12.143	110
12.144	110
12.145	110
12.146	110
12.147	110
12.148	110
12.149	110
12.15	110
12.151	110
12.152	110
12.153	110
12.154	110
12.155	110
12.156	110
12.157	110
12.158	110
12.159	110
12.16	110
12.161	110
12.162	110
12.163	110
12.164	110
12.165	110
12.166	110
12.167	110
12.168	110
12.169	110
12.17	110
12.171	110
12.172	110
12.173	110
12.174	110
12.175	110
12.176	110
12.177	110
12.178	110
12.179	110
12.18	110
12.181	110
12.182	110
12.183	110
12.184	110
12.185	110
12.186	110
12.187	110
12.188	110
12.189	110
12.19	110
12.191	110
12.192	110
12.193	110
12.194	110
12.195	110
12.196	110
12.197	110
12.198	110
12.199	110
12.2	110
12.201	110
12.202	110
12.203	110
12.204	110
12.205	110
12.206	110
12.207	110
12.208	110
12.209	110
12.21	110
12.211	110
12.212	110
12.213	110
12.214	110
12.215	110
12.216	110
12.217	110
12.218	110
12.219	110
12.22	110
12.221	110
12.222	110
12.223	110
12.224	110
12.225	110
12.226	110
12.227	110
12.228	110
12.229	110
12.23	110
12.231	110
12.232	110
12.233	110
12.234	110
12.235	110
12.236	110
12.237	110
12.238	110
12.239	110
12.24	110
12.241	110
12.242	110
12.243	110
12.244	110
12.245	110
12.246	110
12.247	110
12.248	110
12.249	110
12.25	110
12.251	110
12.252	110
12.253	110
12.254	110
12.255	110
12.256	110
12.257	110
12.258	110
12.259	110
12.26	110
12.261	110
12.262	110
12.263	110
12.264	110
12.265	110
12.266	110
12.267	110
12.268	110
12.269	110
12.27	110
12.271	110
12.272	110
12.273	110
12.274	110
12.275	110
12.276	110
12.277	110
12.278	110
12.279	110
12.28	110
12.281	110
12.282	110
12.283	110
12.284	110
12.285	110
12.286	110
12.287	110
12.288	110
12.289	110
12.29	110
12.291	110
12.292	110
12.293	110
12.294	110
12.295	110
12.296	110
12.297	110
12.298	110
12.299	110
12.3	110
12.301	110
12.302	110
12.303	110
12.304	110
12.305	110
12.306	110
12.307	110
12.308	110
12.309	110
12.31	110
12.311	110
12.312	110
12.313	110
12.314	110
12.315	110
12.316	110
12.317	110
12.318	110
12.319	110
12.32	110
12.321	110
12.322	110
12.323	110
12.324	110
12.325	110
12.326	110
12.327	110
12.328	110
12.329	110
12.33	110
12.331	110
12.332	110
12.333	110
12.334	110
12.335	110
12.336	110
12.337	110
12.338	110
12.339	110
12.34	110
12.341	110
12.342	110
12.343	110
12.344	110
12.345	110
12.346	110
12.347	110
12.348	110
12.349	110
12.35	110
12.351	110
12.352	110
12.353	110
12.354	110
12.355	110
12.356	110
12.357	110
12.358	110
12.359	110
12.36	110
12.361	110
12.362	110
12.363	110
12.364	110
12.365	110
12.366	110
12.367	110
12.368	110
12.369	110
12.37	110
12.371	110
12.372	110
12.373	110
12.374	110
12.375	110
12.376	110
12.377	110
12.378	110
12.379	110
12.38	110
12.381	110
12.382	110
12.383	110
12.384	110
12.385	110
12.386	110
12.387	110
12.388	110
12.389	110
12.39	110
12.391	110
12.392	110
12.393	110
12.394	110
12.395	110
12.396	110
12.397	110
12.398	110
12.399	110
12.4	110
12.401	110
12.402	110
12.403	110
12.404	110
12.405	110
12.406	110
12.407	110
12.408	110
12.409	110
12.41	110
12.411	110
12.412	110
12.413	110
12.414	110
12.415	110
12.416	110
12.417	110
12.418	110
12.419	110
12.42	110
12.421	110
12.422	110
12.423	110
12.424	110
12.425	110
12.426	110
12.427	110
12.428	110
12.429	110
12.43	110
12.431	110
12.432	110
12.433	110
12.434	110
12.435	110
12.436	110
12.437	110
12.438	110
12.439	110
12.44	110
12.441	110
12.442	110
12.443	110
12.444	110
12.445	110
12.446	110
12.447	110
12.448	110
12.449	110
12.45	110
12.451	110
12.452	110
12.453	110
12.454	110
12.455	110
12.456	110
12.457	110
12.458	110
12.459	110
12.46	110
12.461	110
12.462	110
12.463	110
12.464	110
12.465	110
12.466	110
12.467	110
12.468	110
12.469	110
12.47	110
12.471	110
12.472	110
12.473	110
12.474	110
12.475	110
12.476	110
12.477	110
12.478	110
12.479	110
12.48	110
12.481	110
12.482	110
12.483	110
12.484	110
12.485	110
12.486	110
12.487	110
12.488	110
12.489	110
12.49	110
12.491	110
12.492	110
12.493	110
12.494	110
12.495	110
12.496	110
12.497	110
12.498	110
12.499	110
12.5	110
12.501	110
12.502	110
12.503	110
12.504	110
12.505	110
12.506	110
12.507	110
12.508	110
12.509	110
12.51	110
12.511	110
12.512	110
12.513	110
12.514	110
12.515	110
12.516	110
12.517	110
12.518	110
12.519	110
12.52	110
12.521	110
12.522	110
12.523	110
12.524	110
12.525	110
12.526	110
12.527	110
12.528	110
12.529	110
12.53	110
12.531	110
12.532	110
12.533	110
12.534	110
12.535	110
12.536	110
12.537	110
12.538	110
12.539	110
12.54	110
12.541	110
12.542	110
12.543	110
12.544	110
12.545	110
12.546	110
12.547	110
12.548	110
12.549	110
12.55	110
12.551	110
12.552	110
12.553	110
12.554	110
12.555	110
12.556	110
12.557	110
12.558	110
12.559	110
12.56	110
12.561	110
12.562	110
12.563	110
12.564	110
12.565	110
12.566	110
12.567	110
12.568	110
12.569	110
12.57	110
12.571	110
12.572	110
12.573	110
12.574	110
12.575	110
12.576	110
12.577	110
12.578	110
12.579	110
12.58	110
12.581	110
12.582	110
12.583	110
12.584	110
12.585	110
12.586	110
12.587	110
12.588	110
12.589	110
12.59	110
12.591	110
12.592	110
12.593	110
12.594	110
12.595	110
12.596	110
12.597	110
12.598	110
12.599	110
12.6	110
12.601	110
12.602	110
12.603	110
12.604	110
12.605	110
12.606	110
12.607	110
12.608	110
12.609	110
12.61	110
12.611	110
12.612	110
12.613	110
12.614	110
12.615	110
12.616	110
12.617	110
12.618	110
12.619	110
12.62	110
12.621	110
12.622	110
12.623	110
12.624	110
12.625	110
12.626	110
12.627	110
12.628	110
12.629	110
12.63	110
12.631	110
12.632	110
12.633	110
12.634	110
12.635	110
12.636	110
12.637	110
12.638	110
12.639	110
12.64	110
12.641	110
12.642	110
12.643	110
12.644	110
12.645	110
12.646	110
12.647	110
12.648	110
12.649	110
12.65	110
12.651	110
12.652	110
12.653	110
12.654	110
12.655	110
12.656	110
12.657	110
12.658	110
12.659	110
12.66	110
12.661	110
12.662	110
12.663	110
12.664	110
12.665	110
12.666	110
12.667	110
12.668	110
12.669	110
12.67	110
12.671	110
12.672	110
12.673	110
12.674	110
12.675	110
12.676	110
12.677	110
12.678	110
12.679	110
12.68	110
12.681	110
12.682	110
12.683	110
12.684	110
12.685	110
12.686	110
12.687	110
12.688	110
12.689	110
12.69	110
12.691	110
12.692	110
12.693	110
12.694	110
12.695	110
12.696	110
12.697	110
12.698	110
12.699	110
12.7	110
12.701	110
12.702	110
12.703	110
12.704	110
12.705	110
12.706	110
12.707	110
12.708	110
12.709	110
12.71	110
12.711	110
12.712	110
12.713	110
12.714	110
12.715	110
12.716	110
12.717	110
12.718	110
12.719	110
12.72	110
12.721	110
12.722	110
12.723	110
12.724	110
12.725	110
12.726	110
12.727	110
12.728	110
12.729	110
12.73	110
12.731	110
12.732	110
12.733	110
12.734	110
12.735	110
12.736	110
12.737	110
12.738	110
12.739	110
12.74	110
12.741	110
12.742	110
12.743	110
12.744	110
12.745	110
12.746	110
12.747	110
12.748	110
12.749	110
12.75	110
12.751	110
12.752	110
12.753	110
12.754	110
12.755	110
12.756	110
12.757	110
12.758	110
12.759	110
12.76	110
12.761	110
12.762	110
12.763	110
12.764	110
12.765	110
12.766	110
12.767	110
12.768	110
12.769	110
12.77	110
12.771	110
12.772	110
12.773	110
12.774	110
12.775	110
12.776	110
12.777	110
12.778	110
12.779	110
12.78	110
12.781	110
12.782	110
12.783	110
12.784	110
12.785	110
12.786	110
12.787	110
12.788	110
12.789	110
12.79	110
12.791	110
12.792	110
12.793	110
12.794	110
12.795	110
12.796	110
12.797	110
12.798	110
12.799	110
12.8	110
12.801	110
12.802	110
12.803	110
12.804	110
12.805	110
12.806	110
12.807	110
12.808	110
12.809	110
12.81	110
12.811	110
12.812	110
12.813	110
12.814	110
12.815	110
12.816	110
12.817	110
12.818	110
12.819	110
12.82	110
12.821	110
12.822	110
12.823	110
12.824	110
12.825	110
12.826	110
12.827	110
12.828	110
12.829	110
12.83	110
12.831	110
12.832	110
12.833	110
12.834	110
12.835	110
12.836	110
12.837	110
12.838	110
12.839	110
12.84	110
12.841	110
12.842	110
12.843	110
12.844	110
12.845	110
12.846	110
12.847	110
12.848	110
12.849	110
12.85	110
12.851	110
12.852	110
12.853	110
12.854	110
12.855	110
12.856	110
12.857	110
12.858	110
12.859	110
12.86	110
12.861	110
12.862	110
12.863	110
12.864	110
12.865	110
12.866	110
12.867	110
12.868	110
12.869	110
12.87	110
12.871	110
12.872	110
12.873	110
12.874	110
12.875	110
12.876	110
12.877	110
12.878	110
12.879	110
12.88	110
12.881	110
12.882	110
12.883	110
12.884	110
12.885	110
12.886	110
12.887	110
12.888	110
12.889	110
12.89	110
12.891	110
12.892	110
12.893	110
12.894	110
12.895	110
12.896	110
12.897	110
12.898	110
12.899	110
12.9	110
12.901	110
12.902	110
12.903	110
12.904	110
12.905	110
12.906	110
12.907	110
12.908	110
12.909	110
12.91	110
12.911	110
12.912	110
12.913	110
12.914	110
12.915	110
12.916	110
12.917	110
12.918	110
12.919	110
12.92	110
12.921	110
12.922	110
12.923	110
12.924	110
12.925	110
12.926	110
12.927	110
12.928	110
12.929	110
12.93	110
12.931	110
12.932	110
12.933	110
12.934	110
12.935	110
12.936	110
12.937	110
12.938	110
12.939	110
12.94	110
12.941	110
12.942	110
12.943	110
12.944	110
12.945	110
12.946	110
12.947	110
12.948	110
12.949	110
12.95	110
12.951	110
12.952	110
12.953	110
12.954	110
12.955	110
12.956	110
12.957	110
12.958	110
12.959	110
12.96	110
12.961	110
12.962	110
12.963	110
12.964	110
12.965	110
12.966	110
12.967	110
12.968	110
12.969	110
12.97	110
12.971	110
12.972	110
12.973	110
12.974	110
12.975	110
12.976	110
12.977	110
12.978	110
12.979	110
12.98	110
12.981	110
12.982	110
12.983	110
12.984	110
12.985	110
12.986	110
12.987	110
12.988	110
12.989	110
12.99	110
12.991	110
12.992	110
12.993	110
12.994	110
12.995	110
12.996	110
12.997	110
12.998	110
12.999	110
13	110
13.001	110
13.002	110
13.003	110
13.004	110
13.005	110
13.006	110
13.007	110
13.008	110
13.009	110
13.01	110
13.011	110
13.012	110
13.013	110
13.014	110
13.015	110
13.016	110
13.017	110
13.018	110
13.019	110
13.02	110
13.021	110
13.022	110
13.023	110
13.024	110
13.025	110
13.026	110
13.027	110
13.028	110
13.029	110
13.03	110
13.031	110
13.032	110
13.033	110
13.034	110
13.035	110
13.036	110
13.037	110
13.038	110
13.039	110
13.04	110
13.041	110
13.042	110
13.043	110
13.044	110
13.045	110
13.046	110
13.047	110
13.048	110
13.049	110
13.05	110
13.051	110
13.052	110
13.053	110
13.054	110
13.055	110
13.056	110
13.057	110
13.058	110
13.059	110
13.06	110
13.061	110
13.062	110
13.063	110
13.064	110
13.065	110
13.066	110
13.067	110
13.068	110
13.069	110
13.07	110
13.071	110
13.072	110
13.073	110
13.074	110
13.075	110
13.076	110
13.077	110
13.078	110
13.079	110
13.08	110
13.081	110
13.082	110
13.083	110
13.084	110
13.085	110
13.086	110
13.087	110
13.088	110
13.089	110
13.09	110
13.091	110
13.092	110
13.093	110
13.094	110
13.095	110
13.096	110
13.097	110
13.098	110
13.099	110
13.1	110
13.101	110
13.102	110
13.103	110
13.104	110
13.105	110
13.106	110
13.107	110
13.108	110
13.109	110
13.11	110
13.111	110
13.112	110
13.113	110
13.114	110
13.115	110
13.116	110
13.117	110
13.118	110
13.119	110
13.12	110
13.121	110
13.122	110
13.123	110
13.124	110
13.125	110
13.126	110
13.127	110
13.128	110
13.129	110
13.13	110
13.131	110
13.132	110
13.133	110
13.134	110
13.135	110
13.136	110
13.137	110
13.138	110
13.139	110
13.14	110
13.141	110
13.142	110
13.143	110
13.144	110
13.145	110
13.146	110
13.147	110
13.148	110
13.149	110



